Data from lab05_FLMS143021_18-29-31-168.txt Node
Date: Wed Feb 15 18:29:31 CST 2023
User: Optics Lab
Spectrometer: FLMS14302
Trigger mode: 0
Integration Time (sec): 1.000000E-1
Scans to average: 1
Electric dark correction enabled: true
Nonlinearity correction enabled: false
Boxcar width: 0
XAxis mode: Wavelengths
Number of Pixels in Spectrum: 2048
>>>>>Begin Spectral Data<<<<<
338.578	-79.48
338.961	-79.48
339.343	-79.48
339.725	-82.07
340.108	-92.46
340.49	-79.48
340.872	-53.53
341.254	-136.57
341.636	45.09
342.018	-84.67
342.4	-37.96
342.782	0.97
343.164	-92.46
343.546	-58.72
343.928	78.83
344.309	76.24
344.691	29.52
345.073	81.43
345.455	50.28
345.836	78.83
346.218	102.19
346.599	94.4
346.981	125.54
347.362	193.02
347.744	224.16
348.125	198.21
348.506	283.85
348.888	263.09
349.269	224.16
349.65	276.07
350.031	283.85
350.413	356.52
350.794	330.57
351.175	302.02
351.556	338.35
351.937	398.04
352.318	351.33
352.698	436.97
353.079	320.19
353.46	374.69
353.841	392.85
354.222	343.54
354.602	449.95
354.983	307.21
355.363	351.33
355.744	374.69
356.124	382.47
356.505	294.24
356.885	379.88
357.266	327.97
357.646	413.62
358.026	327.97
358.407	377.28
358.787	338.35
359.167	322.78
359.547	416.21
359.927	359.12
360.307	340.95
360.687	359.12
361.067	372.09
361.447	320.19
361.827	369.5
362.207	348.74
362.587	411.02
362.966	239.74
363.346	343.54
363.726	327.97
364.105	250.12
364.485	312.4
364.865	320.19
365.244	340.95
365.624	281.26
366.003	257.9
366.382	335.76
366.762	348.74
367.141	353.93
367.52	278.66
367.899	291.64
368.279	346.14
368.658	317.59
369.037	361.71
369.416	333.16
369.795	346.14
370.174	398.04
370.553	312.4
370.932	353.93
371.311	340.95
371.689	361.71
372.068	356.52
372.447	335.76
372.825	377.28
373.204	353.93
373.583	327.97
373.961	304.62
374.34	315
374.718	340.95
375.097	299.43
375.475	307.21
375.853	403.24
376.232	361.71
376.61	374.69
376.988	312.4
377.366	348.74
377.744	322.78
378.122	369.5
378.5	372.09
378.878	387.66
379.256	374.69
379.634	403.24
380.012	379.88
380.39	385.07
380.768	382.47
381.145	361.71
381.523	343.54
381.901	369.5
382.278	315
382.656	343.54
383.033	333.16
383.411	351.33
383.788	379.88
384.166	398.04
384.543	418.81
384.921	351.33
385.298	442.16
385.675	322.78
386.052	335.76
386.429	382.47
386.806	302.02
387.184	364.31
387.561	413.62
387.938	335.76
388.314	317.59
388.691	346.14
389.068	335.76
389.445	322.78
389.822	398.04
390.198	457.74
390.575	309.81
390.952	387.66
391.328	320.19
391.705	434.38
392.081	403.24
392.458	312.4
392.834	320.19
393.211	302.02
393.587	379.88
393.963	395.45
394.34	392.85
394.716	395.45
395.092	408.43
395.468	405.83
395.844	356.52
396.22	374.69
396.596	330.57
396.972	372.09
397.348	325.38
397.724	330.57
398.1	335.76
398.476	343.54
398.851	369.5
399.227	387.66
399.603	379.88
399.978	377.28
400.354	372.09
400.729	400.64
401.105	398.04
401.48	390.26
401.856	320.19
402.231	379.88
402.606	296.83
402.982	361.71
403.357	353.93
403.732	317.59
404.107	312.4
404.482	281.26
404.857	317.59
405.232	351.33
405.607	364.31
405.982	273.47
406.357	340.95
406.732	343.54
407.107	343.54
407.482	356.52
407.856	320.19
408.231	400.64
408.606	361.71
408.98	439.57
409.355	398.04
409.729	333.16
410.104	343.54
410.478	359.12
410.852	408.43
411.227	398.04
411.601	403.24
411.975	387.66
412.35	400.64
412.724	346.14
413.098	398.04
413.472	400.64
413.846	366.9
414.22	369.5
414.594	366.9
414.968	377.28
415.342	364.31
415.715	382.47
416.089	369.5
416.463	372.09
416.837	340.95
417.21	340.95
417.584	359.12
417.957	390.26
418.331	468.12
418.704	411.02
419.078	395.45
419.451	395.45
419.824	395.45
420.198	356.52
420.571	379.88
420.944	392.85
421.317	470.71
421.69	366.9
422.064	460.33
422.437	400.64
422.81	369.5
423.182	470.71
423.555	455.14
423.928	382.47
424.301	400.64
424.674	400.64
425.047	356.52
425.419	353.93
425.792	395.45
426.164	395.45
426.537	379.88
426.91	398.04
427.282	413.62
427.654	377.28
428.027	382.47
428.399	343.54
428.771	382.47
429.144	400.64
429.516	418.81
429.888	327.97
430.26	392.85
430.632	369.5
431.004	421.4
431.376	356.52
431.748	385.07
432.12	353.93
432.492	411.02
432.864	281.26
433.236	424
433.607	444.76
433.979	340.95
434.351	343.54
434.722	330.57
435.094	353.93
435.465	411.02
435.837	390.26
436.208	382.47
436.58	390.26
436.951	382.47
437.322	353.93
437.693	312.4
438.065	395.45
438.436	405.83
438.807	411.02
439.178	449.95
439.549	372.09
439.92	340.95
440.291	434.38
440.662	369.5
441.033	439.57
441.403	307.21
441.774	343.54
442.145	369.5
442.516	390.26
442.886	335.76
443.257	483.69
443.627	372.09
443.998	385.07
444.368	327.97
444.739	377.28
445.109	374.69
445.479	452.54
445.85	330.57
446.22	483.69
446.59	408.43
446.96	361.71
447.33	333.16
447.7	411.02
448.07	364.31
448.44	382.47
448.81	478.5
449.18	382.47
449.55	395.45
449.92	403.24
450.29	317.59
450.659	439.57
451.029	281.26
451.399	315
451.768	343.54
452.138	343.54
452.507	377.28
452.877	403.24
453.246	356.52
453.615	429.19
453.985	434.38
454.354	444.76
454.723	421.4
455.092	335.76
455.462	340.95
455.831	421.4
456.2	411.02
456.569	462.93
456.938	361.71
457.307	535.59
457.675	390.26
458.044	348.74
458.413	353.93
458.782	343.54
459.15	379.88
459.519	359.12
459.888	312.4
460.256	429.19
460.625	377.28
460.993	442.16
461.362	395.45
461.73	387.66
462.098	418.81
462.467	424
462.835	400.64
463.203	403.24
463.571	387.66
463.939	439.57
464.307	379.88
464.675	353.93
465.043	385.07
465.411	377.28
465.779	377.28
466.147	385.07
466.515	382.47
466.883	361.71
467.25	366.9
467.618	372.09
467.986	398.04
468.353	338.35
468.721	379.88
469.088	424
469.456	333.16
469.823	366.9
470.19	369.5
470.558	390.26
470.925	369.5
471.292	372.09
471.659	403.24
472.027	421.4
472.394	343.54
472.761	364.31
473.128	333.16
473.495	431.78
473.862	395.45
474.228	377.28
474.595	444.76
474.962	372.09
475.329	364.31
475.695	460.33
476.062	424
476.429	431.78
476.795	353.93
477.162	392.85
477.528	372.09
477.895	411.02
478.261	374.69
478.627	382.47
478.994	359.12
479.36	436.97
479.726	447.35
480.092	387.66
480.458	411.02
480.824	390.26
481.19	330.57
481.556	382.47
481.922	356.52
482.288	416.21
482.654	374.69
483.02	390.26
483.385	405.83
483.751	424
484.117	408.43
484.482	392.85
484.848	405.83
485.213	387.66
485.579	385.07
485.944	382.47
486.31	390.26
486.675	356.52
487.04	408.43
487.406	387.66
487.771	452.54
488.136	442.16
488.501	372.09
488.866	403.24
489.231	413.62
489.596	364.31
489.961	400.64
490.326	462.93
490.691	452.54
491.056	473.31
491.42	398.04
491.785	359.12
492.15	411.02
492.514	348.74
492.879	317.59
493.243	377.28
493.608	369.5
493.972	400.64
494.337	348.74
494.701	364.31
495.065	330.57
495.43	369.5
495.794	411.02
496.158	359.12
496.522	382.47
496.886	364.31
497.25	416.21
497.614	369.5
497.978	436.97
498.342	312.4
498.706	424
499.07	398.04
499.433	359.12
499.797	366.9
500.161	356.52
500.524	369.5
500.888	377.28
501.251	431.78
501.615	346.14
501.978	377.28
502.342	411.02
502.705	361.71
503.068	353.93
503.432	335.76
503.795	330.57
504.158	374.69
504.521	364.31
504.884	392.85
505.247	413.62
505.61	374.69
505.973	356.52
506.336	346.14
506.699	405.83
507.062	416.21
507.424	424
507.787	351.33
508.15	439.57
508.512	377.28
508.875	398.04
509.238	338.35
509.6	400.64
509.962	408.43
510.325	366.9
510.687	372.09
511.049	405.83
511.412	390.26
511.774	408.43
512.136	408.43
512.498	405.83
512.86	429.19
513.222	359.12
513.584	346.14
513.946	320.19
514.308	361.71
514.67	398.04
515.032	333.16
515.393	382.47
515.755	390.26
516.117	353.93
516.478	413.62
516.84	361.71
517.201	442.16
517.563	348.74
517.924	449.95
518.286	400.64
518.647	395.45
519.008	426.59
519.37	369.5
519.731	340.95
520.092	436.97
520.453	413.62
520.814	429.19
521.175	400.64
521.536	426.59
521.897	299.43
522.258	405.83
522.619	439.57
522.979	442.16
523.34	418.81
523.701	390.26
524.061	408.43
524.422	408.43
524.783	426.59
525.143	372.09
525.504	343.54
525.864	403.24
526.224	356.52
526.585	382.47
526.945	353.93
527.305	315
527.665	411.02
528.025	335.76
528.385	405.83
528.746	351.33
529.106	403.24
529.465	431.78
529.825	413.62
530.185	413.62
530.545	385.07
530.905	436.97
531.264	385.07
531.624	359.12
531.984	359.12
532.343	335.76
532.703	403.24
533.062	372.09
533.422	426.59
533.781	369.5
534.141	361.71
534.5	442.16
534.859	359.12
535.218	346.14
535.577	353.93
535.937	353.93
536.296	426.59
536.655	416.21
537.014	413.62
537.373	372.09
537.731	429.19
538.09	398.04
538.449	309.81
538.808	411.02
539.166	379.88
539.525	382.47
539.884	434.38
540.242	416.21
540.601	374.69
540.959	374.69
541.318	447.35
541.676	364.31
542.034	346.14
542.393	444.76
542.751	387.66
543.109	361.71
543.467	403.24
543.825	351.33
544.183	374.69
544.541	335.76
544.899	473.31
545.257	369.5
545.615	353.93
545.973	372.09
546.331	294.24
546.688	390.26
547.046	400.64
547.404	408.43
547.761	374.69
548.119	434.38
548.476	411.02
548.834	359.12
549.191	346.14
549.548	366.9
549.906	426.59
550.263	379.88
550.62	426.59
550.977	330.57
551.334	304.62
551.691	392.85
552.048	317.59
552.405	361.71
552.762	364.31
553.119	465.52
553.476	436.97
553.833	405.83
554.189	442.16
554.546	361.71
554.903	416.21
555.259	439.57
555.616	351.33
555.972	426.59
556.329	338.35
556.685	361.71
557.042	382.47
557.398	421.4
557.754	351.33
558.11	452.54
558.467	364.31
558.823	400.64
559.179	431.78
559.535	379.88
559.891	353.93
560.247	361.71
560.603	359.12
560.958	395.45
561.314	369.5
561.67	429.19
562.026	457.74
562.381	400.64
562.737	408.43
563.092	400.64
563.448	387.66
563.803	439.57
564.159	442.16
564.514	398.04
564.869	431.78
565.225	398.04
565.58	366.9
565.935	395.45
566.29	372.09
566.645	364.31
567	346.14
567.355	403.24
567.71	382.47
568.065	374.69
568.42	335.76
568.775	356.52
569.13	395.45
569.484	400.64
569.839	377.28
570.193	325.38
570.548	377.28
570.903	382.47
571.257	400.64
571.611	439.57
571.966	418.81
572.32	366.9
572.674	379.88
573.029	359.12
573.383	346.14
573.737	424
574.091	403.24
574.445	395.45
574.799	364.31
575.153	418.81
575.507	400.64
575.861	426.59
576.215	392.85
576.568	424
576.922	346.14
577.276	338.35
577.629	366.9
577.983	436.97
578.336	369.5
578.69	372.09
579.043	411.02
579.397	356.52
579.75	299.43
580.103	390.26
580.456	452.54
580.81	348.74
581.163	460.33
581.516	447.35
581.869	353.93
582.222	426.59
582.575	411.02
582.928	455.14
583.281	413.62
583.633	398.04
583.986	424
584.339	374.69
584.691	426.59
585.044	343.54
585.397	392.85
585.749	353.93
586.102	387.66
586.454	382.47
586.806	424
587.159	317.59
587.511	408.43
587.863	366.9
588.215	327.97
588.567	405.83
588.92	504.45
589.272	330.57
589.624	361.71
589.975	405.83
590.327	455.14
590.679	390.26
591.031	390.26
591.383	390.26
591.734	377.28
592.086	338.35
592.438	374.69
592.789	359.12
593.141	369.5
593.492	398.04
593.844	364.31
594.195	346.14
594.546	400.64
594.898	296.83
595.249	361.71
595.6	382.47
595.951	335.76
596.302	395.45
596.653	452.54
597.004	374.69
597.355	338.35
597.706	351.33
598.057	346.14
598.408	426.59
598.758	351.33
599.109	447.35
599.46	379.88
599.81	346.14
600.161	361.71
600.511	317.59
600.862	346.14
601.212	426.59
601.562	382.47
601.913	400.64
602.263	359.12
602.613	361.71
602.963	382.47
603.313	405.83
603.663	379.88
604.013	421.4
604.363	447.35
604.713	426.59
605.063	413.62
605.413	426.59
605.763	385.07
606.112	382.47
606.462	356.52
606.812	416.21
607.161	340.95
607.511	309.81
607.86	400.64
608.21	387.66
608.559	335.76
608.908	390.26
609.258	426.59
609.607	348.74
609.956	372.09
610.305	356.52
610.654	353.93
611.003	424
611.352	364.31
611.701	385.07
612.05	377.28
612.399	372.09
612.748	426.59
613.097	398.04
613.445	387.66
613.794	377.28
614.143	364.31
614.491	346.14
614.84	512.24
615.188	372.09
615.537	465.52
615.885	372.09
616.233	392.85
616.581	346.14
616.93	364.31
617.278	390.26
617.626	374.69
617.974	426.59
618.322	434.38
618.67	325.38
619.018	353.93
619.366	366.9
619.714	403.24
620.061	369.5
620.409	377.28
620.757	439.57
621.104	403.24
621.452	385.07
621.799	333.16
622.147	387.66
622.494	387.66
622.842	411.02
623.189	372.09
623.536	424
623.884	356.52
624.231	424
624.578	348.74
624.925	322.78
625.272	364.31
625.619	294.24
625.966	405.83
626.313	385.07
626.66	429.19
627.007	434.38
627.353	320.19
627.7	382.47
628.047	408.43
628.393	382.47
628.74	374.69
629.086	374.69
629.433	322.78
629.779	392.85
630.125	416.21
630.472	320.19
630.818	382.47
631.164	330.57
631.51	400.64
631.857	325.38
632.203	343.54
632.549	353.93
632.895	400.64
633.24	462.93
633.586	377.28
633.932	356.52
634.278	346.14
634.624	431.78
634.969	431.78
635.315	351.33
635.66	372.09
636.006	491.47
636.351	411.02
636.697	343.54
637.042	390.26
637.388	431.78
637.733	429.19
638.078	442.16
638.423	429.19
638.768	400.64
639.113	385.07
639.458	330.57
639.803	317.59
640.148	340.95
640.493	411.02
640.838	403.24
641.183	447.35
641.527	411.02
641.872	327.97
642.217	327.97
642.561	390.26
642.906	351.33
643.25	374.69
643.595	400.64
643.939	322.78
644.284	317.59
644.628	317.59
644.972	398.04
645.316	436.97
645.66	408.43
646.004	452.54
646.348	400.64
646.692	413.62
647.036	351.33
647.38	294.24
647.724	369.5
648.068	312.4
648.412	405.83
648.755	400.64
649.099	366.9
649.443	364.31
649.786	320.19
650.13	387.66
650.473	374.69
650.816	361.71
651.16	377.28
651.503	400.64
651.846	351.33
652.189	429.19
652.533	416.21
652.876	372.09
653.219	369.5
653.562	400.64
653.905	475.9
654.247	413.62
654.59	436.97
654.933	338.35
655.276	395.45
655.619	452.54
655.961	395.45
656.304	377.28
656.646	364.31
656.989	304.62
657.331	364.31
657.674	356.52
658.016	315
658.358	366.9
658.701	429.19
659.043	340.95
659.385	304.62
659.727	387.66
660.069	320.19
660.411	418.81
660.753	400.64
661.095	382.47
661.437	418.81
661.778	385.07
662.12	444.76
662.462	385.07
662.804	379.88
663.145	434.38
663.487	340.95
663.828	385.07
664.17	361.71
664.511	426.59
664.852	426.59
665.194	364.31
665.535	470.71
665.876	343.54
666.217	398.04
666.558	361.71
666.899	366.9
667.24	325.38
667.581	481.09
667.922	470.71
668.263	359.12
668.604	315
668.944	377.28
669.285	361.71
669.626	346.14
669.966	395.45
670.307	424
670.647	418.81
670.988	411.02
671.328	413.62
671.669	325.38
672.009	369.5
672.349	335.76
672.689	369.5
673.029	395.45
673.369	346.14
673.71	353.93
674.049	361.71
674.389	478.5
674.729	377.28
675.069	361.71
675.409	398.04
675.749	390.26
676.088	387.66
676.428	408.43
676.768	353.93
677.107	377.28
677.447	426.59
677.786	408.43
678.125	595.28
678.465	413.62
678.804	315
679.143	387.66
679.482	366.9
679.821	351.33
680.161	327.97
680.5	382.47
680.839	366.9
681.177	403.24
681.516	390.26
681.855	333.16
682.194	405.83
682.533	304.62
682.871	364.31
683.21	379.88
683.549	351.33
683.887	387.66
684.225	413.62
684.564	377.28
684.902	405.83
685.241	364.31
685.579	377.28
685.917	452.54
686.255	387.66
686.593	408.43
686.931	392.85
687.269	330.57
687.607	411.02
687.945	403.24
688.283	382.47
688.621	385.07
688.959	364.31
689.296	395.45
689.634	390.26
689.972	421.4
690.309	449.95
690.647	392.85
690.984	340.95
691.322	416.21
691.659	405.83
691.996	392.85
692.333	426.59
692.671	327.97
693.008	283.85
693.345	392.85
693.682	385.07
694.019	387.66
694.356	426.59
694.693	372.09
695.03	348.74
695.366	346.14
695.703	481.09
696.04	361.71
696.376	369.5
696.713	348.74
697.05	455.14
697.386	361.71
697.722	353.93
698.059	322.78
698.395	322.78
698.731	364.31
699.068	359.12
699.404	522.62
699.74	315
700.076	434.38
700.412	361.71
700.748	348.74
701.084	382.47
701.42	398.04
701.756	369.5
702.091	379.88
702.427	379.88
702.763	395.45
703.098	392.85
703.434	291.64
703.769	348.74
704.105	359.12
704.44	377.28
704.776	395.45
705.111	330.57
705.446	296.83
705.781	421.4
706.117	356.52
706.452	413.62
706.787	385.07
707.122	395.45
707.457	353.93
707.792	351.33
708.126	348.74
708.461	377.28
708.796	340.95
709.131	335.76
709.465	333.16
709.8	307.21
710.134	382.47
710.469	333.16
710.803	413.62
711.138	444.76
711.472	374.69
711.806	374.69
712.14	413.62
712.475	385.07
712.809	421.4
713.143	444.76
713.477	434.38
713.811	302.02
714.145	413.62
714.479	302.02
714.812	327.97
715.146	348.74
715.48	309.81
715.814	395.45
716.147	366.9
716.481	348.74
716.814	395.45
717.148	364.31
717.481	486.28
717.814	398.04
718.148	302.02
718.481	346.14
718.814	356.52
719.147	431.78
719.48	366.9
719.813	387.66
720.146	320.19
720.479	408.43
720.812	379.88
721.145	351.33
721.478	408.43
721.81	379.88
722.143	330.57
722.476	385.07
722.808	317.59
723.141	403.24
723.473	421.4
723.806	364.31
724.138	429.19
724.47	405.83
724.803	374.69
725.135	426.59
725.467	387.66
725.799	372.09
726.131	460.33
726.463	392.85
726.795	439.57
727.127	387.66
727.459	333.16
727.791	418.81
728.122	442.16
728.454	408.43
728.786	387.66
729.117	335.76
729.449	398.04
729.78	364.31
730.112	366.9
730.443	335.76
730.774	361.71
731.106	424
731.437	382.47
731.768	361.71
732.099	335.76
732.43	385.07
732.761	416.21
733.092	400.64
733.423	395.45
733.754	330.57
734.085	351.33
734.416	335.76
734.746	390.26
735.077	346.14
735.407	369.5
735.738	364.31
736.068	408.43
736.399	317.59
736.729	366.9
737.06	468.12
737.39	408.43
737.72	439.57
738.05	400.64
738.38	372.09
738.71	320.19
739.041	366.9
739.37	351.33
739.7	359.12
740.03	348.74
740.36	317.59
740.69	398.04
741.02	338.35
741.349	416.21
741.679	322.78
742.008	395.45
742.338	403.24
742.667	369.5
742.997	330.57
743.326	408.43
743.655	418.81
743.984	416.21
744.314	250.12
744.643	379.88
744.972	398.04
745.301	392.85
745.63	413.62
745.959	444.76
746.288	421.4
746.616	346.14
746.945	343.54
747.274	359.12
747.603	457.74
747.931	338.35
748.26	387.66
748.588	455.14
748.917	302.02
749.245	361.71
749.573	411.02
749.902	403.24
750.23	390.26
750.558	434.38
750.886	390.26
751.214	462.93
751.542	416.21
751.87	390.26
752.198	395.45
752.526	369.5
752.854	405.83
753.182	424
753.509	343.54
753.837	382.47
754.165	369.5
754.492	377.28
754.82	405.83
755.147	361.71
755.474	411.02
755.802	390.26
756.129	372.09
756.456	392.85
756.783	353.93
757.111	348.74
757.438	322.78
757.765	405.83
758.092	385.07
758.418	366.9
758.745	327.97
759.072	449.95
759.399	372.09
759.726	465.52
760.052	351.33
760.379	390.26
760.705	403.24
761.032	400.64
761.358	374.69
761.685	385.07
762.011	338.35
762.337	385.07
762.663	369.5
762.99	309.81
763.316	398.04
763.642	468.12
763.968	382.47
764.294	385.07
764.62	327.97
764.946	460.33
765.271	382.47
765.597	405.83
765.923	413.62
766.248	322.78
766.574	434.38
766.9	364.31
767.225	351.33
767.55	385.07
767.876	356.52
768.201	364.31
768.526	662.76
768.852	400.64
769.177	346.14
769.502	325.38
769.827	372.09
770.152	385.07
770.477	405.83
770.802	382.47
771.127	418.81
771.451	426.59
771.776	351.33
772.101	340.95
772.425	390.26
772.75	372.09
773.075	372.09
773.399	348.74
773.723	390.26
774.048	338.35
774.372	369.5
774.696	379.88
775.02	385.07
775.345	411.02
775.669	390.26
775.993	390.26
776.317	343.54
776.641	361.71
776.965	312.4
777.288	405.83
777.612	416.21
777.936	387.66
778.26	405.83
778.583	294.24
778.907	346.14
779.23	392.85
779.554	372.09
