Data from Subt2_19-00-18-752.txt Node
Date: Wed Feb 22 19:00:18 CST 2023
User: Optics Lab
Spectrometer: FLMS14302
Trigger mode: 0
Integration Time (sec): 1.000000E-1
Scans to average: 1
Electric dark correction enabled: true
Nonlinearity correction enabled: false
Boxcar width: 0
XAxis mode: Wavelengths
Number of Pixels in Spectrum: 2048
>>>>>Begin Spectral Data<<<<<
338.578	-41.04
338.961	-41.04
339.343	-41.04
339.725	-22.87
340.108	88.72
340.49	-92.94
340.872	67.96
341.254	5.68
341.636	-4.7
342.018	21.25
342.4	-48.82
342.782	3.08
343.164	13.46
343.546	8.27
343.928	47.2
344.309	3.08
344.691	-28.06
345.073	49.8
345.455	0.49
345.836	-43.63
346.218	-2.11
346.599	70.56
346.981	47.2
347.362	18.65
347.744	0.49
348.125	16.06
348.506	130.25
348.888	52.39
349.269	31.63
349.65	-12.49
350.031	54.99
350.413	-2.11
350.794	0.49
351.175	-46.23
351.556	-15.08
351.937	-2.11
352.318	26.44
352.698	3.08
353.079	39.42
353.46	-77.37
353.841	5.68
354.222	-12.49
354.602	-28.06
354.983	47.2
355.363	-46.23
355.744	54.99
356.124	161.39
356.505	39.42
356.885	31.63
357.266	8.27
357.646	101.7
358.026	-15.08
358.407	99.11
358.787	16.06
359.167	10.87
359.547	-30.66
359.927	156.2
360.307	5.68
360.687	23.84
361.067	36.82
361.447	13.46
361.827	39.42
362.207	-46.23
362.587	3.08
362.966	-15.08
363.346	8.27
363.726	47.2
364.105	3.08
364.485	86.13
364.865	-35.85
365.244	-4.7
365.624	-56.61
366.003	75.75
366.382	-7.3
366.762	88.72
367.141	42.01
367.52	75.75
367.899	-12.49
368.279	-7.3
368.658	-17.68
369.037	21.25
369.416	-33.25
369.795	0.49
370.174	8.27
370.553	-64.39
370.932	-7.3
371.311	-56.61
371.689	36.82
372.068	5.68
372.447	62.77
372.825	-43.63
373.204	-17.68
373.583	-61.8
373.961	67.96
374.34	73.15
374.718	-113.7
375.097	54.99
375.475	57.58
375.853	-7.3
376.232	31.63
376.61	36.82
376.988	23.84
377.366	16.06
377.744	60.18
378.122	5.68
378.5	-41.04
378.878	-38.44
379.256	26.44
379.634	-46.23
380.012	16.06
380.39	10.87
380.768	-95.54
381.145	-4.7
381.523	5.68
381.901	3.08
382.278	36.82
382.656	-30.66
383.033	34.22
383.411	99.11
383.788	-69.58
384.166	0.49
384.543	93.92
384.921	127.65
385.298	86.13
385.675	34.22
386.052	-4.7
386.429	119.87
386.806	34.22
387.184	122.46
387.561	127.65
387.938	-48.82
388.314	-41.04
388.691	23.84
389.068	83.53
389.445	-28.06
389.822	-28.06
390.198	8.27
390.575	-33.25
390.952	3.08
391.328	-48.82
391.705	80.94
392.081	36.82
392.458	31.63
392.834	-22.87
393.211	65.37
393.587	10.87
393.963	-98.13
394.34	-15.08
394.716	-46.23
395.092	-28.06
395.468	21.25
395.844	5.68
396.22	96.51
396.596	-98.13
396.972	23.84
397.348	-15.08
397.724	-9.89
398.1	13.46
398.476	16.06
398.851	39.42
399.227	3.08
399.603	-12.49
399.978	13.46
400.354	0.49
400.729	0.49
401.105	34.22
401.48	21.25
401.856	3.08
402.231	73.15
402.606	-9.89
402.982	-7.3
403.357	-46.23
403.732	8.27
404.107	75.75
404.482	44.61
404.857	44.61
405.232	10.87
405.607	26.44
405.982	29.03
406.357	-59.2
406.732	18.65
407.107	-61.8
407.482	-38.44
407.856	-82.56
408.231	18.65
408.606	-9.89
408.98	-25.47
409.355	44.61
409.729	-7.3
410.104	73.15
410.478	16.06
410.852	39.42
411.227	34.22
411.601	60.18
411.975	-25.47
412.35	96.51
412.724	-46.23
413.098	39.42
413.472	125.06
413.846	-56.61
414.22	-33.25
414.594	26.44
414.968	36.82
415.342	-46.23
415.715	-7.3
416.089	31.63
416.463	-51.42
416.837	0.49
417.21	-7.3
417.584	-33.25
417.957	-41.04
418.331	-12.49
418.704	-41.04
419.078	101.7
419.451	47.2
419.824	114.68
420.198	-4.7
420.571	34.22
420.944	62.77
421.317	-15.08
421.69	119.87
422.064	18.65
422.437	34.22
422.81	-59.2
423.182	91.32
423.555	109.49
423.928	-41.04
424.301	23.84
424.674	54.99
425.047	-25.47
425.419	-4.7
425.792	-15.08
426.164	-17.68
426.537	-95.54
426.91	26.44
427.282	83.53
427.654	-9.89
428.027	-2.11
428.399	47.2
428.771	36.82
429.144	91.32
429.516	-17.68
429.888	-77.37
430.26	-20.28
430.632	-46.23
431.004	73.15
431.376	34.22
431.748	26.44
432.12	-56.61
432.492	-2.11
432.864	31.63
433.236	-79.97
433.607	-113.7
433.979	10.87
434.351	78.34
434.722	26.44
435.094	65.37
435.465	31.63
435.837	187.34
436.208	285.96
436.58	350.84
436.951	122.46
437.322	127.65
437.693	47.2
438.065	54.99
438.436	83.53
438.807	-46.23
439.178	44.61
439.549	-20.28
439.92	101.7
440.291	3.08
440.662	-43.63
441.033	96.51
441.403	104.3
441.774	47.2
442.145	127.65
442.516	93.92
442.886	122.46
443.257	125.06
443.627	91.32
443.998	112.08
444.368	5.68
444.739	67.96
445.109	109.49
445.479	78.34
445.85	93.92
446.22	-33.25
446.59	0.49
446.96	163.99
447.33	106.89
447.7	122.46
448.07	119.87
448.44	138.03
448.81	99.11
449.18	80.94
449.55	88.72
449.92	31.63
450.29	-79.97
450.659	65.37
451.029	208.11
451.399	208.11
451.768	213.3
452.138	106.89
452.507	101.7
452.877	156.2
453.246	239.25
453.615	169.18
453.985	122.46
454.354	291.15
454.723	210.7
455.092	208.11
455.462	91.32
455.831	208.11
456.2	265.2
456.569	210.7
456.938	171.77
457.307	249.63
457.675	223.68
458.044	184.75
458.413	226.27
458.782	202.92
459.15	262.61
459.519	213.3
459.888	140.63
460.256	176.96
460.625	182.15
460.993	158.8
461.362	42.01
461.73	122.46
462.098	88.72
462.467	221.08
462.835	138.03
463.203	202.92
463.571	145.82
463.939	119.87
464.307	226.27
464.675	29.03
465.043	138.03
465.411	189.94
465.779	166.58
466.147	114.68
466.515	187.34
466.883	169.18
467.25	236.65
467.618	202.92
467.986	143.22
468.353	166.58
468.721	132.84
469.088	135.44
469.456	127.65
469.823	218.49
470.19	166.58
470.558	176.96
470.925	153.61
471.292	60.18
471.659	218.49
472.027	197.72
472.394	176.96
472.761	130.25
473.128	187.34
473.495	215.89
473.862	78.34
474.228	171.77
474.595	161.39
474.962	156.2
475.329	161.39
475.695	122.46
476.062	143.22
476.429	119.87
476.795	119.87
477.162	125.06
477.528	93.92
477.895	52.39
478.261	70.56
478.627	187.34
478.994	114.68
479.36	31.63
479.726	39.42
480.092	145.82
480.458	104.3
480.824	101.7
481.19	3.08
481.556	104.3
481.922	60.18
482.288	163.99
482.654	182.15
483.02	39.42
483.385	184.75
483.751	156.2
484.117	125.06
484.482	70.56
484.848	156.2
485.213	145.82
485.579	143.22
485.944	29.03
486.31	125.06
486.675	148.42
487.04	158.8
487.406	187.34
487.771	166.58
488.136	138.03
488.501	86.13
488.866	127.65
489.231	260.01
489.596	169.18
489.961	262.61
490.326	163.99
490.691	34.22
491.056	241.84
491.42	106.89
491.785	75.75
492.15	202.92
492.514	210.7
492.879	158.8
493.243	179.56
493.608	148.42
493.972	171.77
494.337	272.99
494.701	18.65
495.065	143.22
495.43	143.22
495.794	166.58
496.158	127.65
496.522	166.58
496.886	140.63
497.25	114.68
497.614	127.65
497.978	117.27
498.342	67.96
498.706	54.99
499.07	96.51
499.433	60.18
499.797	179.56
500.161	145.82
500.524	96.51
500.888	54.99
501.251	171.77
501.615	148.42
501.978	140.63
502.342	65.37
502.705	153.61
503.068	187.34
503.432	143.22
503.795	78.34
504.158	195.13
504.521	125.06
504.884	138.03
505.247	73.15
505.61	62.77
505.973	161.39
506.336	236.65
506.699	44.61
507.062	75.75
507.424	202.92
507.787	210.7
508.15	176.96
508.512	205.51
508.875	54.99
509.238	231.46
509.6	148.42
509.962	135.44
510.325	99.11
510.687	122.46
511.049	29.03
511.412	226.27
511.774	67.96
512.136	161.39
512.498	135.44
512.86	156.2
513.222	-46.23
513.584	112.08
513.946	73.15
514.308	88.72
514.67	202.92
515.032	161.39
515.393	270.39
515.755	148.42
516.117	104.3
516.478	93.92
516.84	158.8
517.201	202.92
517.563	163.99
517.924	182.15
518.286	125.06
518.647	122.46
519.008	130.25
519.37	88.72
519.731	125.06
520.092	73.15
520.453	145.82
520.814	101.7
521.175	200.32
521.536	218.49
521.897	257.42
522.258	179.56
522.619	130.25
522.979	179.56
523.34	221.08
523.701	151.01
524.061	112.08
524.422	221.08
524.783	252.22
525.143	283.37
525.504	130.25
525.864	171.77
526.224	169.18
526.585	117.27
526.945	153.61
527.305	122.46
527.665	119.87
528.025	189.94
528.385	210.7
528.746	140.63
529.106	239.25
529.465	169.18
529.825	179.56
530.185	221.08
530.545	117.27
530.905	215.89
531.264	304.13
531.624	205.51
531.984	205.51
532.343	138.03
532.703	151.01
533.062	143.22
533.422	192.53
533.781	151.01
534.141	148.42
534.5	99.11
534.859	223.68
535.218	163.99
535.577	99.11
535.937	174.37
536.296	101.7
536.655	189.94
537.014	254.82
537.373	231.46
537.731	125.06
538.09	218.49
538.449	210.7
538.808	236.65
539.166	158.8
539.525	257.42
539.884	293.75
540.242	231.46
540.601	213.3
540.959	241.84
541.318	218.49
541.676	324.89
542.034	444.27
542.393	542.89
542.751	631.13
543.109	610.37
543.467	750.51
543.825	602.58
544.183	625.94
544.541	670.06
544.899	675.25
545.257	610.37
545.615	612.96
545.973	563.65
546.331	574.03
546.688	747.92
547.046	503.96
547.404	381.99
547.761	361.22
548.119	262.61
548.476	322.3
548.834	356.03
549.191	311.92
549.548	244.44
549.906	226.27
550.263	156.2
550.62	278.18
550.977	231.46
551.334	231.46
551.691	249.63
552.048	257.42
552.405	192.53
552.762	314.51
553.119	257.42
553.476	210.7
553.833	171.77
554.189	205.51
554.546	205.51
554.903	197.72
555.259	184.75
555.616	161.39
555.972	166.58
556.329	208.11
556.685	215.89
557.042	140.63
557.398	153.61
557.754	184.75
558.11	127.65
558.467	78.34
558.823	101.7
559.179	187.34
559.535	93.92
559.891	143.22
560.247	99.11
560.603	93.92
560.958	179.56
561.314	166.58
561.67	109.49
562.026	158.8
562.381	101.7
562.737	132.84
563.092	106.89
563.448	151.01
563.803	179.56
564.159	135.44
564.514	78.34
564.869	148.42
565.225	171.77
565.58	23.84
565.935	140.63
566.29	197.72
566.645	127.65
567	93.92
567.355	179.56
567.71	86.13
568.065	106.89
568.42	49.8
568.775	80.94
569.13	169.18
569.484	91.32
569.839	13.46
570.193	140.63
570.548	104.3
570.903	127.65
571.257	31.63
571.611	163.99
571.966	140.63
572.32	-28.06
572.674	75.75
573.029	23.84
573.383	73.15
573.737	10.87
574.091	163.99
574.445	117.27
574.799	169.18
575.153	78.34
575.507	127.65
575.861	151.01
576.215	112.08
576.568	101.7
576.922	44.61
577.276	54.99
577.629	132.84
577.983	62.77
578.336	57.58
578.69	75.75
579.043	112.08
579.397	130.25
579.75	0.49
580.103	21.25
580.456	153.61
580.81	145.82
581.163	73.15
581.516	130.25
581.869	101.7
582.222	135.44
582.575	57.58
582.928	125.06
583.281	138.03
583.633	93.92
583.986	125.06
584.339	143.22
584.691	16.06
585.044	39.42
585.397	148.42
585.749	218.49
586.102	93.92
586.454	132.84
586.806	192.53
587.159	-28.06
587.511	-61.8
587.863	-35.85
588.215	-25.47
588.567	13.46
588.92	-12.49
589.272	5.68
589.624	83.53
589.975	96.51
590.327	-59.2
590.679	-30.66
591.031	-46.23
591.383	-79.97
591.734	-90.35
592.086	-12.49
592.438	-69.58
592.789	-124.08
593.141	-199.35
593.492	-178.58
593.844	-217.51
594.195	-251.25
594.546	-209.73
594.898	-144.85
595.249	-92.94
595.6	-95.54
595.951	-77.37
596.302	-41.04
596.653	-98.13
597.004	-105.92
597.355	-72.18
597.706	-43.63
598.057	-98.13
598.408	-90.35
598.758	-170.8
599.109	-225.3
599.46	-290.18
599.81	-425.13
600.161	-370.63
600.511	-435.51
600.862	-412.16
601.212	-272.01
601.562	-308.35
601.913	-214.92
602.263	-152.63
602.613	-157.82
602.963	-118.89
603.313	-142.25
603.663	-188.97
604.013	-126.68
604.363	-129.28
604.713	-129.28
605.063	-199.35
605.413	-191.56
605.763	-222.7
606.112	-217.51
606.462	-336.89
606.812	-227.89
607.161	-279.8
607.511	-365.44
607.86	-484.82
608.21	-661.3
608.559	-611.99
608.908	-936.4
609.258	-1255.61
609.607	-1429.49
609.956	-2182.11
610.305	-3147.54
610.654	-5485.85
611.003	-9453.97
611.352	-14561.4
611.701	-17766.53
612.05	-17024.29
612.399	-14667.81
612.748	-11633.97
613.097	-9277.5
613.445	-7684.02
613.794	-6176.18
614.143	-5732.4
614.491	-5286.02
614.84	-4948.64
615.188	-4608.66
615.537	-4136.33
615.885	-3477.13
616.233	-2994.42
616.581	-2524.68
616.93	-2096.47
617.278	-1899.23
617.626	-1720.16
617.974	-1556.66
618.322	-1364.61
618.67	-1413.92
619.018	-1445.06
619.366	-1600.78
619.714	-1520.32
620.061	-1592.99
620.409	-1676.04
620.757	-1722.75
621.104	-1795.42
621.452	-1764.28
621.799	-1580.01
622.147	-1668.25
622.494	-1546.28
622.842	-1598.18
623.189	-1598.18
623.536	-1349.04
623.884	-1419.11
624.231	-1421.7
624.578	-1481.4
624.925	-1434.68
625.272	-1278.97
625.619	-1341.25
625.966	-1289.35
626.313	-1092.11
626.66	-1094.7
627.007	-1208.9
627.353	-1068.75
627.7	-1120.66
628.047	-1167.37
628.393	-1118.06
628.74	-1154.4
629.086	-1164.78
629.433	-1182.94
629.779	-1291.94
630.125	-1471.01
630.472	-1733.13
630.818	-2215.85
631.164	-2763.44
631.51	-3067.09
631.857	-2976.25
632.203	-2397.52
632.549	-1798.01
632.895	-1281.56
633.24	-936.4
633.586	-785.87
633.932	-547.11
634.278	-368.04
634.624	-310.94
634.969	-326.51
635.315	-209.73
635.66	-313.54
636.006	-264.23
636.351	-243.47
636.697	-186.37
637.042	-118.89
637.388	-227.89
637.733	-95.54
638.078	-43.63
638.423	433.89
638.768	880.27
639.113	1046.37
639.458	1209.87
639.803	1152.77
640.148	929.58
640.493	524.73
640.838	405.34
641.183	80.94
641.527	67.96
641.872	-15.08
642.217	-113.7
642.561	-56.61
642.906	-175.99
643.25	-155.23
643.595	-157.82
643.939	-134.47
644.284	-290.18
644.628	-142.25
644.972	-194.16
645.316	-253.85
645.66	-170.8
646.004	-165.61
646.348	-225.3
646.692	-152.63
647.036	-150.04
647.38	-207.13
647.724	-259.04
648.068	-168.2
648.412	-194.16
648.755	-222.7
649.099	-287.59
649.443	-220.11
649.786	-310.94
650.13	-401.78
650.473	-733.97
650.816	-915.63
651.16	-1011.66
651.503	-905.25
651.846	-728.78
652.189	-500.39
652.533	-357.66
652.876	-412.16
653.219	-419.94
653.562	-502.99
653.905	-414.75
654.247	-383.61
654.59	-256.44
654.933	-295.37
655.276	-253.85
655.619	-201.94
655.961	-144.85
656.304	-214.92
656.646	-64.39
656.989	-137.06
657.331	-7.3
657.674	-214.92
658.016	-251.25
658.358	-217.51
658.701	-191.56
659.043	-209.73
659.385	-235.68
659.727	-118.89
660.069	-181.18
660.411	-188.97
660.753	-98.13
661.095	-90.35
661.437	-98.13
661.778	-235.68
662.12	-269.42
662.462	-344.68
662.804	-614.59
663.145	-611.99
663.487	-432.92
663.828	-456.28
664.17	-440.7
664.511	-326.51
664.852	-391.39
665.194	-282.39
665.535	-214.92
665.876	-139.66
666.217	-87.75
666.558	-152.63
666.899	-207.13
667.24	-209.73
667.581	-196.75
667.922	-240.87
668.263	-147.44
668.604	-264.23
668.944	-310.94
669.285	-269.42
669.626	-238.28
669.966	-103.32
670.307	-188.97
670.647	-116.3
670.988	-168.2
671.328	-77.37
671.669	-240.87
672.009	-207.13
672.349	-175.99
672.689	-66.99
673.029	-207.13
673.369	-66.99
673.71	-264.23
674.049	-59.2
674.389	-173.39
674.729	-212.32
675.069	-98.13
675.409	-35.85
675.749	-152.63
676.088	-43.63
676.428	-129.28
676.768	-155.23
677.107	-272.01
677.447	-204.54
677.786	-72.18
678.125	-82.56
678.465	-113.7
678.804	-98.13
679.143	-256.44
679.482	-165.61
679.821	-137.06
680.161	-134.47
680.5	-152.63
680.839	-178.58
681.177	-282.39
681.516	-144.85
681.855	-165.61
682.194	-100.73
682.533	-160.42
682.871	-113.7
683.21	-150.04
683.549	-82.56
683.887	-188.97
684.225	-92.94
684.564	-79.97
684.902	-77.37
685.241	-59.2
685.579	-56.61
685.917	-51.42
686.255	-147.44
686.593	-139.66
686.931	-230.49
687.269	-362.85
687.607	-502.99
687.945	-477.04
688.283	-443.3
688.621	-487.42
688.959	-435.51
689.296	-295.37
689.634	-282.39
689.972	-204.54
690.309	-126.68
690.647	-201.94
690.984	-168.2
691.322	-165.61
691.659	-38.44
691.996	-41.04
692.333	-77.37
692.671	-92.94
693.008	-170.8
693.345	-173.39
693.682	-313.54
694.019	-458.87
694.356	-290.18
694.693	-368.04
695.03	-261.63
695.366	-217.51
695.703	-165.61
696.04	-74.78
696.376	-147.44
696.713	-129.28
697.05	-82.56
697.386	-150.04
697.722	26.44
698.059	5.68
698.395	91.32
698.731	-41.04
699.068	-41.04
699.404	-118.89
699.74	-43.63
700.076	47.2
700.412	39.42
700.748	10.87
701.084	16.06
701.42	5.68
701.756	-4.7
702.091	-113.7
702.427	-69.58
702.763	-157.82
703.098	-137.06
703.434	-79.97
703.769	-82.56
704.105	-116.3
704.44	-170.8
704.776	-108.51
705.111	-240.87
705.446	-313.54
705.781	-336.89
706.117	-500.39
706.452	-666.49
706.787	-845.56
707.122	-1156.99
707.457	-1201.11
707.792	-1224.47
708.126	-1177.75
708.461	-1050.59
708.796	-1068.75
709.131	-1439.87
709.465	-1590.4
709.8	-1561.85
710.134	-1250.42
710.469	-1032.42
710.803	-744.35
711.138	-622.37
711.472	-484.82
711.806	-601.61
712.14	-785.87
712.475	-1128.44
712.809	-1245.23
713.143	-1118.06
713.477	-1066.16
713.811	-682.06
714.145	-567.87
714.479	-383.61
714.812	-292.78
715.146	-183.78
715.48	-59.2
715.814	-126.68
716.147	-74.78
716.481	-82.56
716.814	-28.06
717.148	18.65
717.481	42.01
717.814	52.39
718.148	-41.04
718.481	-38.44
718.814	-15.08
719.147	36.82
719.48	-87.75
719.813	-17.68
720.146	-54.01
720.479	-38.44
720.812	34.22
721.145	10.87
721.478	-17.68
721.81	-46.23
722.143	-12.49
722.476	23.84
722.808	10.87
723.141	-79.97
723.473	-126.68
723.806	104.3
724.138	39.42
724.47	-90.35
724.803	34.22
725.135	16.06
725.467	36.82
725.799	36.82
726.131	-12.49
726.463	-79.97
726.795	-9.89
727.127	73.15
727.459	47.2
727.791	10.87
728.122	44.61
728.454	10.87
728.786	13.46
729.117	-66.99
729.449	-30.66
729.78	3.08
730.112	-100.73
730.443	-95.54
730.774	-12.49
731.106	-33.25
731.437	39.42
731.768	-12.49
732.099	21.25
732.43	78.34
732.761	-9.89
733.092	-108.51
733.423	-82.56
733.754	-30.66
734.085	-38.44
734.416	-66.99
734.746	-30.66
735.077	-59.2
735.407	26.44
735.738	-12.49
736.068	109.49
736.399	10.87
736.729	34.22
737.06	44.61
737.39	31.63
737.72	36.82
738.05	-43.63
738.38	-22.87
738.71	23.84
739.041	-28.06
739.37	0.49
739.7	-20.28
740.03	10.87
740.36	13.46
740.69	44.61
741.02	-38.44
741.349	73.15
741.679	8.27
742.008	44.61
742.338	-59.2
742.667	-33.25
742.997	-77.37
743.326	-25.47
743.655	44.61
743.984	60.18
744.314	-56.61
744.643	54.99
744.972	5.68
745.301	-137.06
745.63	-77.37
745.959	-15.08
746.288	-64.39
746.616	-98.13
746.945	21.25
747.274	10.87
747.603	-77.37
747.931	5.68
748.26	21.25
748.588	57.58
748.917	39.42
749.245	54.99
749.573	-25.47
749.902	-7.3
750.23	5.68
750.558	-9.89
750.886	-85.16
751.214	0.49
751.542	-17.68
751.87	-28.06
752.198	-9.89
752.526	-9.89
752.854	-66.99
753.182	-38.44
753.509	-79.97
753.837	-28.06
754.165	3.08
754.492	-56.61
754.82	-2.11
755.147	-17.68
755.474	-28.06
755.802	80.94
756.129	5.68
756.456	62.77
756.783	106.89
757.111	-43.63
757.438	-46.23
757.765	-28.06
758.092	60.18
758.418	8.27
758.745	-124.08
759.072	-43.63
759.399	-178.58
759.726	-269.42
760.052	-248.66
760.379	-456.28
760.705	-549.7
761.032	-440.7
761.358	-235.68
761.685	-222.7
762.011	-199.35
762.337	-100.73
762.663	-35.85
762.99	-7.3
763.316	-20.28
763.642	-20.28
763.968	49.8
764.294	-41.04
764.62	-59.2
764.946	23.84
765.271	44.61
765.597	156.2
765.923	-77.37
766.248	34.22
766.574	13.46
766.9	-54.01
767.225	52.39
767.55	52.39
767.876	3.08
768.201	-69.58
768.526	57.58
768.852	-12.49
769.177	47.2
769.502	-59.2
769.827	-59.2
770.152	-43.63
770.477	-103.32
770.802	-85.16
771.127	112.08
771.451	49.8
771.776	36.82
772.101	-54.01
772.425	-35.85
772.75	67.96
773.075	-41.04
773.399	65.37
773.723	26.44
774.048	-25.47
774.372	0.49
774.696	-15.08
775.02	18.65
775.345	26.44
775.669	49.8
775.993	8.27
776.317	145.82
776.641	10.87
776.965	-2.11
777.288	16.06
777.612	-87.75
777.936	8.27
778.26	-28.06
778.583	10.87
778.907	42.01
779.23	-28.06
