Data from Subt2_19-02-53-896.txt Node
Date: Wed Feb 22 19:02:53 CST 2023
User: Optics Lab
Spectrometer: FLMS14302
Trigger mode: 0
Integration Time (sec): 1.000000E-1
Scans to average: 1
Electric dark correction enabled: true
Nonlinearity correction enabled: false
Boxcar width: 0
XAxis mode: Wavelengths
Number of Pixels in Spectrum: 2048
>>>>>Begin Spectral Data<<<<<
338.578	-28.87
338.961	-28.87
339.343	-28.87
339.725	17.84
340.108	67.15
340.49	-15.9
340.872	46.39
341.254	-31.47
341.636	30.82
342.018	-70.4
342.4	-101.54
342.782	12.65
343.164	15.25
343.546	-10.71
343.928	41.2
344.309	-47.04
344.691	-8.11
345.073	33.41
345.455	93.1
345.836	-0.32
346.218	12.65
346.599	-106.73
346.981	10.06
347.362	46.39
347.744	-10.71
348.125	72.34
348.506	36.01
348.888	46.39
349.269	7.46
349.65	15.25
350.031	15.25
350.413	-60.01
350.794	28.22
351.175	-23.68
351.556	-8.11
351.937	80.13
352.318	-65.21
352.698	-83.37
353.079	-23.68
353.46	-54.82
353.841	-36.66
354.222	17.84
354.602	-114.51
354.983	17.84
355.363	-21.09
355.744	7.46
356.124	59.37
356.505	-10.71
356.885	-41.85
357.266	-57.42
357.646	85.32
358.026	30.82
358.407	51.58
358.787	72.34
359.167	59.37
359.547	-34.06
359.927	-10.71
360.307	-31.47
360.687	10.06
361.067	43.79
361.447	67.15
361.827	4.87
362.207	4.87
362.587	-10.71
362.966	38.6
363.346	-13.3
363.726	-49.63
364.105	-13.3
364.485	-0.32
364.865	-41.85
365.244	12.65
365.624	-54.82
366.003	59.37
366.382	-72.99
366.762	108.68
367.141	48.99
367.52	38.6
367.899	59.37
368.279	30.82
368.658	38.6
369.037	-2.92
369.416	33.41
369.795	56.77
370.174	87.91
370.553	-8.11
370.932	4.87
371.311	-2.92
371.689	80.13
372.068	-60.01
372.447	46.39
372.825	28.22
373.204	-8.11
373.583	-0.32
373.961	38.6
374.34	-13.3
374.718	-106.73
375.097	7.46
375.475	61.96
375.853	23.03
376.232	69.75
376.61	95.7
376.988	10.06
377.366	10.06
377.744	-34.06
378.122	28.22
378.5	-13.3
378.878	15.25
379.256	10.06
379.634	-23.68
380.012	10.06
380.39	-101.54
380.768	-54.82
381.145	-26.28
381.523	-21.09
381.901	67.15
382.278	-10.71
382.656	20.44
383.033	43.79
383.411	77.53
383.788	-75.59
384.166	-0.32
384.543	98.29
384.921	-18.49
385.298	116.46
385.675	17.84
386.052	10.06
386.429	38.6
386.806	38.6
387.184	28.22
387.561	111.27
387.938	-5.51
388.314	87.91
388.691	-39.25
389.068	82.72
389.445	-5.51
389.822	-18.49
390.198	54.18
390.575	-36.66
390.952	-62.61
391.328	38.6
391.705	46.39
392.081	95.7
392.458	-34.06
392.834	-10.71
393.211	82.72
393.587	28.22
393.963	-117.11
394.34	17.84
394.716	15.25
395.092	10.06
395.468	-39.25
395.844	-52.23
396.22	38.6
396.596	-39.25
396.972	-21.09
397.348	15.25
397.724	-41.85
398.1	-62.61
398.476	2.27
398.851	61.96
399.227	-75.59
399.603	-5.51
399.978	41.2
400.354	-34.06
400.729	15.25
401.105	25.63
401.48	48.99
401.856	20.44
402.231	28.22
402.606	-18.49
402.982	-18.49
403.357	7.46
403.732	-36.66
404.107	119.06
404.482	100.89
404.857	36.01
405.232	-10.71
405.607	48.99
405.982	23.03
406.357	10.06
406.732	-18.49
407.107	-72.99
407.482	-85.97
407.856	-44.44
408.231	30.82
408.606	-47.04
408.98	-10.71
409.355	4.87
409.729	-31.47
410.104	-26.28
410.478	69.75
410.852	-62.61
411.227	23.03
411.601	-0.32
411.975	-2.92
412.35	17.84
412.724	-21.09
413.098	30.82
413.472	119.06
413.846	-67.8
414.22	43.79
414.594	41.2
414.968	-5.51
415.342	-44.44
415.715	43.79
416.089	20.44
416.463	-31.47
416.837	28.22
417.21	-28.87
417.584	-26.28
417.957	36.01
418.331	25.63
418.704	7.46
419.078	72.34
419.451	-8.11
419.824	28.22
420.198	-28.87
420.571	-26.28
420.944	41.2
421.317	-60.01
421.69	69.75
422.064	36.01
422.437	28.22
422.81	-88.56
423.182	10.06
423.555	67.15
423.928	-28.87
424.301	-5.51
424.674	-54.82
425.047	15.25
425.419	28.22
425.792	4.87
426.164	-13.3
426.537	-54.82
426.91	-28.87
427.282	98.29
427.654	-44.44
428.027	4.87
428.399	17.84
428.771	7.46
429.144	90.51
429.516	51.58
429.888	-70.4
430.26	-78.18
430.632	-114.51
431.004	38.6
431.376	36.01
431.748	126.84
432.12	-8.11
432.492	-26.28
432.864	-8.11
433.236	-75.59
433.607	-96.35
433.979	2.27
434.351	-18.49
434.722	4.87
435.094	90.51
435.465	23.03
435.837	212.49
436.208	272.18
436.58	365.6
436.951	145.01
437.322	69.75
437.693	69.75
438.065	-36.66
438.436	28.22
438.807	20.44
439.178	20.44
439.549	-124.9
439.92	90.51
440.291	-0.32
440.662	61.96
441.033	150.2
441.403	72.34
441.774	33.41
442.145	61.96
442.516	113.87
442.886	69.75
443.257	145.01
443.627	51.58
443.998	113.87
444.368	-0.32
444.739	145.01
445.109	25.63
445.479	124.25
445.85	77.53
446.22	46.39
446.59	51.58
446.96	126.84
447.33	119.06
447.7	126.84
448.07	116.46
448.44	134.63
448.81	124.25
449.18	121.65
449.55	20.44
449.92	23.03
450.29	67.15
450.659	103.49
451.029	207.29
451.399	207.29
451.768	248.82
452.138	152.79
452.507	103.49
452.877	103.49
453.246	202.1
453.615	134.63
453.985	212.49
454.354	186.53
454.723	207.29
455.092	183.94
455.462	165.77
455.831	178.75
456.2	222.87
456.569	222.87
456.938	256.6
457.307	46.39
457.675	248.82
458.044	183.94
458.413	277.37
458.782	217.68
459.15	142.41
459.519	191.72
459.888	259.2
460.256	126.84
460.625	207.29
460.993	134.63
461.362	132.03
461.73	113.87
462.098	129.44
462.467	150.2
462.835	155.39
463.203	209.89
463.571	103.49
463.939	90.51
464.307	48.99
464.675	170.96
465.043	155.39
465.411	186.53
465.779	202.1
466.147	134.63
466.515	147.6
466.883	176.15
467.25	290.34
467.618	147.6
467.986	196.91
468.353	113.87
468.721	119.06
469.088	103.49
469.456	87.91
469.823	196.91
470.19	170.96
470.558	147.6
470.925	93.1
471.292	69.75
471.659	170.96
472.027	157.99
472.394	134.63
472.761	181.34
473.128	137.22
473.495	126.84
473.862	186.53
474.228	113.87
474.595	173.56
474.962	191.72
475.329	124.25
475.695	72.34
476.062	51.58
476.429	145.01
476.795	137.22
477.162	113.87
477.528	108.68
477.895	46.39
478.261	36.01
478.627	183.94
478.994	134.63
479.36	7.46
479.726	121.65
480.092	152.79
480.458	33.41
480.824	124.25
481.19	41.2
481.556	194.32
481.922	108.68
482.288	69.75
482.654	124.25
483.02	77.53
483.385	186.53
483.751	152.79
484.117	170.96
484.482	103.49
484.848	137.22
485.213	124.25
485.579	191.72
485.944	59.37
486.31	139.82
486.675	111.27
487.04	212.49
487.406	132.03
487.771	228.06
488.136	194.32
488.501	191.72
488.866	183.94
489.231	235.84
489.596	160.58
489.961	212.49
490.326	183.94
490.691	54.18
491.056	145.01
491.42	116.46
491.785	137.22
492.15	196.91
492.514	228.06
492.879	181.34
493.243	129.44
493.608	181.34
493.972	25.63
494.337	150.2
494.701	23.03
495.065	137.22
495.43	33.41
495.794	38.6
496.158	106.08
496.522	199.51
496.886	38.6
497.25	82.72
497.614	61.96
497.978	204.7
498.342	113.87
498.706	111.27
499.07	129.44
499.433	145.01
499.797	113.87
500.161	207.29
500.524	95.7
500.888	121.65
501.251	129.44
501.615	202.1
501.978	124.25
502.342	51.58
502.705	147.6
503.068	173.56
503.432	121.65
503.795	129.44
504.158	217.68
504.521	134.63
504.884	150.2
505.247	137.22
505.61	106.08
505.973	222.87
506.336	176.15
506.699	173.56
507.062	64.56
507.424	134.63
507.787	100.89
508.15	56.77
508.512	142.41
508.875	111.27
509.238	170.96
509.6	116.46
509.962	100.89
510.325	98.29
510.687	168.37
511.049	38.6
511.412	152.79
511.774	28.22
512.136	173.56
512.498	173.56
512.86	155.39
513.222	116.46
513.584	85.32
513.946	51.58
514.308	85.32
514.67	139.82
515.032	168.37
515.393	176.15
515.755	259.2
516.117	116.46
516.478	209.89
516.84	155.39
517.201	176.15
517.563	233.25
517.924	165.77
518.286	124.25
518.647	145.01
519.008	108.68
519.37	106.08
519.731	134.63
520.092	-21.09
520.453	155.39
520.814	126.84
521.175	150.2
521.536	191.72
521.897	259.2
522.258	155.39
522.619	183.94
522.979	137.22
523.34	246.22
523.701	119.06
524.061	228.06
524.422	163.18
524.783	238.44
525.143	157.99
525.504	111.27
525.864	155.39
526.224	113.87
526.585	108.68
526.945	170.96
527.305	59.37
527.665	165.77
528.025	202.1
528.385	147.6
528.746	163.18
529.106	191.72
529.465	254.01
529.825	298.13
530.185	36.01
530.545	116.46
530.905	111.27
531.264	298.13
531.624	178.75
531.984	209.89
532.343	98.29
532.703	108.68
533.062	147.6
533.422	243.63
533.781	176.15
534.141	183.94
534.5	43.79
534.859	264.39
535.218	116.46
535.577	160.58
535.937	238.44
536.296	145.01
536.655	157.99
537.014	228.06
537.373	183.94
537.731	217.68
538.09	196.91
538.449	225.46
538.808	316.29
539.166	189.13
539.525	207.29
539.884	186.53
540.242	204.7
540.601	194.32
540.959	279.96
541.318	311.1
541.676	337.06
542.034	404.53
542.393	604.37
542.751	586.2
543.109	674.44
543.467	625.13
543.825	503.15
544.183	599.18
544.541	656.27
544.899	715.96
545.257	573.22
545.615	531.7
545.973	664.06
546.331	653.68
546.688	617.34
547.046	459.03
547.404	360.41
547.761	347.44
548.119	145.01
548.476	401.94
548.834	311.1
549.191	443.46
549.548	251.41
549.906	279.96
550.263	261.79
550.62	228.06
550.977	269.58
551.334	279.96
551.691	238.44
552.048	272.18
552.405	222.87
552.762	264.39
553.119	202.1
553.476	212.49
553.833	238.44
554.189	178.75
554.546	126.84
554.903	215.08
555.259	204.7
555.616	165.77
555.972	132.03
556.329	207.29
556.685	108.68
557.042	168.37
557.398	181.34
557.754	82.72
558.11	139.82
558.467	111.27
558.823	93.1
559.179	168.37
559.535	20.44
559.891	126.84
560.247	139.82
560.603	129.44
560.958	152.79
561.314	134.63
561.67	108.68
562.026	152.79
562.381	168.37
562.737	100.89
563.092	61.96
563.448	132.03
563.803	145.01
564.159	142.41
564.514	87.91
564.869	93.1
565.225	170.96
565.58	46.39
565.935	163.18
566.29	189.13
566.645	134.63
567	142.41
567.355	168.37
567.71	111.27
568.065	85.32
568.42	-5.51
568.775	150.2
569.13	129.44
569.484	72.34
569.839	25.63
570.193	64.56
570.548	54.18
570.903	74.94
571.257	77.53
571.611	100.89
571.966	126.84
572.32	116.46
572.674	145.01
573.029	106.08
573.383	51.58
573.737	12.65
574.091	69.75
574.445	77.53
574.799	119.06
575.153	98.29
575.507	95.7
575.861	155.39
576.215	95.7
576.568	106.08
576.922	85.32
577.276	25.63
577.629	93.1
577.983	74.94
578.336	43.79
578.69	23.03
579.043	163.18
579.397	191.72
579.75	77.53
580.103	38.6
580.456	189.13
580.81	119.06
581.163	48.99
581.516	100.89
581.869	134.63
582.222	160.58
582.575	126.84
582.928	38.6
583.281	111.27
583.633	56.77
583.986	251.41
584.339	67.15
584.691	17.84
585.044	12.65
585.397	111.27
585.749	150.2
586.102	74.94
586.454	100.89
586.806	103.49
587.159	28.22
587.511	12.65
587.863	10.06
588.215	28.22
588.567	10.06
588.92	-5.51
589.272	-5.51
589.624	56.77
589.975	-44.44
590.327	-98.94
590.679	-111.92
591.031	-85.97
591.383	17.84
591.734	15.25
592.086	38.6
592.438	-28.87
592.789	-62.61
593.141	-220.92
593.492	-189.78
593.844	-239.09
594.195	-166.42
594.546	-192.37
594.898	-176.8
595.249	-36.66
595.6	-21.09
595.951	-57.42
596.302	-60.01
596.653	-161.23
597.004	-80.78
597.355	-98.94
597.706	-23.68
598.057	-176.8
598.408	-54.82
598.758	-135.28
599.109	-246.87
599.46	-283.21
599.81	-363.66
600.161	-316.94
600.511	-420.75
600.862	-322.13
601.212	-239.09
601.562	-239.09
601.913	-189.78
602.263	-122.3
602.613	-176.8
602.963	-47.04
603.313	-192.37
603.663	-161.23
604.013	-106.73
604.363	-109.32
604.713	-111.92
605.063	-179.4
605.413	-179.4
605.763	-246.87
606.112	-143.06
606.462	-283.21
606.812	-236.49
607.161	-342.9
607.511	-363.66
607.86	-438.92
608.21	-599.82
608.559	-612.8
608.908	-877.52
609.258	-1209.71
609.607	-1352.44
609.956	-2203.68
610.305	-3145.76
610.654	-5312.78
611.003	-9361.36
611.352	-14476.57
611.701	-17728.41
612.05	-17035.48
612.399	-14712.74
612.748	-11720.43
613.097	-9361.36
613.445	-7583.62
613.794	-6239.28
614.143	-5725.42
614.491	-5315.38
614.84	-4928.69
615.188	-4570.54
615.537	-4178.66
615.885	-3568.78
616.233	-3062.71
616.581	-2535.87
616.93	-2141.4
617.278	-1861.11
617.626	-1643.11
617.974	-1531.52
618.322	-1375.8
618.67	-1427.71
619.018	-1386.18
619.366	-1593.8
619.714	-1508.16
620.061	-1549.68
620.409	-1637.92
620.757	-1746.92
621.104	-1788.44
621.452	-1775.47
621.799	-1606.78
622.147	-1687.23
622.494	-1528.92
622.842	-1601.59
623.189	-1500.37
623.536	-1432.9
623.884	-1445.87
624.231	-1336.87
624.578	-1417.33
624.925	-1352.44
625.272	-1412.13
625.619	-1186.35
625.966	-1388.78
626.313	-1201.92
626.66	-1069.56
627.007	-1225.28
627.353	-1056.59
627.7	-1118.87
628.047	-1160.4
628.393	-1147.42
628.74	-1090.33
629.086	-1165.59
629.433	-1085.13
629.779	-1259.02
630.125	-1502.97
630.472	-1702.8
630.818	-2149.18
631.164	-2753.87
631.51	-3036.76
631.857	-2992.64
632.203	-2341.23
632.549	-1749.52
632.895	-1378.4
633.24	-890.49
633.586	-711.42
633.932	-454.49
634.278	-361.06
634.624	-335.11
634.969	-259.85
635.315	-169.02
635.66	-252.06
636.006	-246.87
636.351	-194.97
636.697	-223.52
637.042	-124.9
637.388	-179.4
637.733	-78.18
638.078	-15.9
638.423	625.13
638.768	1307.68
639.113	1364.77
639.458	1455.61
639.803	1715.13
640.148	1245.39
640.493	814.58
640.838	568.03
641.183	228.06
641.527	103.49
641.872	-5.51
642.217	-101.54
642.561	-132.68
642.906	-265.04
643.25	-197.56
643.595	-205.35
643.939	-135.28
644.284	-278.02
644.628	-23.68
644.972	-228.71
645.316	-259.85
645.66	-192.37
646.004	-228.71
646.348	-223.52
646.692	-239.09
647.036	-197.56
647.38	-179.4
647.724	-316.94
648.068	-200.16
648.412	-233.9
648.755	-218.32
649.099	-233.9
649.443	-241.68
649.786	-324.73
650.13	-412.97
650.473	-706.23
650.816	-942.4
651.16	-950.18
651.503	-919.04
651.846	-745.16
652.189	-540.13
652.533	-457.09
652.876	-444.11
653.219	-516.78
653.562	-384.42
653.905	-399.99
654.247	-441.52
654.59	-290.99
654.933	-293.59
655.276	-223.52
655.619	-189.78
655.961	-132.68
656.304	-161.23
656.646	-132.68
656.989	-143.06
657.331	-39.25
657.674	-231.3
658.016	-226.11
658.358	-270.23
658.701	-246.87
659.043	-171.61
659.385	-176.8
659.727	-140.47
660.069	-171.61
660.411	-145.66
660.753	-85.97
661.095	-52.23
661.437	-28.87
661.778	-215.73
662.12	-270.23
662.462	-335.11
662.804	-571.28
663.145	-547.92
663.487	-508.99
663.828	-405.18
664.17	-410.37
664.511	-332.52
664.852	-257.25
665.194	-311.75
665.535	-181.99
665.876	-148.25
666.217	-114.51
666.558	-158.63
666.899	-249.47
667.24	-179.4
667.581	-280.61
667.922	-176.8
668.263	-163.82
668.604	-244.28
668.944	-246.87
669.285	-296.18
669.626	-228.71
669.966	-202.75
670.307	-257.25
670.647	-137.87
670.988	-184.59
671.328	-135.28
671.669	-200.16
672.009	-301.37
672.349	-153.44
672.689	-15.9
673.029	-109.32
673.369	-67.8
673.71	-259.85
674.049	-127.49
674.389	-267.63
674.729	-174.21
675.069	-80.78
675.409	-52.23
675.749	-98.94
676.088	-67.8
676.428	-101.54
676.768	-137.87
677.107	-254.66
677.447	-148.25
677.786	-54.82
678.125	-8.11
678.465	-200.16
678.804	-80.78
679.143	-181.99
679.482	-127.49
679.821	-174.21
680.161	-189.78
680.5	-140.47
680.839	-117.11
681.177	-275.42
681.516	-137.87
681.855	-169.02
682.194	-163.82
682.533	-140.47
682.871	-189.78
683.21	-148.25
683.549	-106.73
683.887	-158.63
684.225	-80.78
684.564	-41.85
684.902	-98.94
685.241	-83.37
685.579	-75.59
685.917	-67.8
686.255	-88.56
686.593	-194.97
686.931	-265.04
687.269	-389.61
687.607	-449.3
687.945	-516.78
688.283	-410.37
688.621	-594.63
688.959	-433.73
689.296	-306.56
689.634	-278.02
689.972	-194.97
690.309	-109.32
690.647	-88.56
690.984	-184.59
691.322	-88.56
691.659	-41.85
691.996	-54.82
692.333	-101.54
692.671	-132.68
693.008	-158.63
693.345	-228.71
693.682	-306.56
694.019	-394.8
694.356	-311.75
694.693	-353.28
695.03	-332.52
695.366	-236.49
695.703	-176.8
696.04	-41.85
696.376	-192.37
696.713	-166.42
697.05	-21.09
697.386	-52.23
697.722	20.44
698.059	-23.68
698.395	77.53
698.731	-41.85
699.068	36.01
699.404	-5.51
699.74	-39.25
700.076	-54.82
700.412	-114.51
700.748	-34.06
701.084	-65.21
701.42	-28.87
701.756	10.06
702.091	-78.18
702.427	-62.61
702.763	-143.06
703.098	-62.61
703.434	-41.85
703.769	-111.92
704.105	-72.99
704.44	-156.04
704.776	-109.32
705.111	-218.32
705.446	-278.02
705.781	-410.37
706.117	-467.47
706.452	-636.16
706.787	-789.28
707.122	-1181.16
707.457	-1175.97
707.792	-1303.13
708.126	-1157.8
708.461	-1033.23
708.796	-1201.92
709.131	-1461.44
709.465	-1497.78
709.8	-1513.35
710.134	-1259.02
710.469	-1053.99
710.803	-726.99
711.138	-597.23
711.472	-529.75
711.806	-571.28
712.14	-734.78
712.475	-1079.94
712.809	-1310.92
713.143	-1131.85
713.477	-996.9
713.811	-711.42
714.145	-628.37
714.479	-423.35
714.812	-265.04
715.146	-161.23
715.48	-85.97
715.814	-96.35
716.147	-96.35
716.481	-65.21
716.814	-54.82
717.148	-0.32
717.481	20.44
717.814	-13.3
718.148	-96.35
718.481	-44.44
718.814	-47.04
719.147	41.2
719.48	-49.63
719.813	-0.32
720.146	-85.97
720.479	-49.63
720.812	-0.32
721.145	-91.16
721.478	15.25
721.81	-117.11
722.143	-52.23
722.476	41.2
722.808	36.01
723.141	-75.59
723.473	-65.21
723.806	-5.51
724.138	77.53
724.47	-54.82
724.803	2.27
725.135	41.2
725.467	-2.92
725.799	-60.01
726.131	-23.68
726.463	-153.44
726.795	51.58
727.127	87.91
727.459	33.41
727.791	-15.9
728.122	20.44
728.454	46.39
728.786	-2.92
729.117	-13.3
729.449	-65.21
729.78	-26.28
730.112	-60.01
730.443	-91.16
730.774	-49.63
731.106	-93.75
731.437	80.13
731.768	-88.56
732.099	-8.11
732.43	-5.51
732.761	-36.66
733.092	-31.47
733.423	-13.3
733.754	30.82
734.085	-44.44
734.416	43.79
734.746	15.25
735.077	-5.51
735.407	4.87
735.738	28.22
736.068	48.99
736.399	-60.01
736.729	-49.63
737.06	90.51
737.39	25.63
737.72	-15.9
738.05	-60.01
738.38	-65.21
738.71	25.63
739.041	-28.87
739.37	-2.92
739.7	-85.97
740.03	30.82
740.36	-28.87
740.69	17.84
741.02	-26.28
741.349	38.6
741.679	-15.9
742.008	25.63
742.338	-39.25
742.667	-39.25
742.997	-117.11
743.326	-28.87
743.655	12.65
743.984	56.77
744.314	-104.13
744.643	17.84
744.972	-23.68
745.301	-98.94
745.63	-60.01
745.959	-0.32
746.288	-104.13
746.616	-0.32
746.945	-18.49
747.274	-28.87
747.603	-21.09
747.931	-62.61
748.26	-5.51
748.588	36.01
748.917	33.41
749.245	-52.23
749.573	36.01
749.902	7.46
750.23	-8.11
750.558	4.87
750.886	-41.85
751.214	64.56
751.542	74.94
751.87	-10.71
752.198	-8.11
752.526	-47.04
752.854	-67.8
753.182	-13.3
753.509	-47.04
753.837	-18.49
754.165	23.03
754.492	-39.25
754.82	41.2
755.147	23.03
755.474	-13.3
755.802	-119.71
756.129	43.79
756.456	-5.51
756.783	-52.23
757.111	-67.8
757.438	-28.87
757.765	-41.85
758.092	17.84
758.418	51.58
758.745	-174.21
759.072	-52.23
759.399	-119.71
759.726	-272.82
760.052	-358.47
760.379	-555.71
760.705	-550.52
761.032	-449.3
761.358	-249.47
761.685	-220.92
762.011	-148.25
762.337	-135.28
762.663	-78.18
762.99	-36.66
763.316	-21.09
763.642	23.03
763.968	15.25
764.294	-54.82
764.62	-96.35
764.946	-31.47
765.271	54.18
765.597	64.56
765.923	-117.11
766.248	74.94
766.574	46.39
766.9	-0.32
767.225	25.63
767.55	20.44
767.876	17.84
768.201	-54.82
768.526	56.77
768.852	121.65
769.177	-78.18
769.502	-145.66
769.827	-80.78
770.152	-18.49
770.477	-83.37
770.802	-23.68
771.127	10.06
771.451	38.6
771.776	30.82
772.101	56.77
772.425	-98.94
772.75	46.39
773.075	12.65
773.399	36.01
773.723	23.03
774.048	-70.4
774.372	-13.3
774.696	-88.56
775.02	-49.63
775.345	-70.4
775.669	36.01
775.993	-10.71
776.317	7.46
776.641	-47.04
776.965	-36.66
777.288	85.32
777.612	-72.99
777.936	46.39
778.26	-44.44
