Data from Subt2_19-03-53-838.txt Node
Date: Wed Feb 22 19:03:53 CST 2023
User: Optics Lab
Spectrometer: FLMS14302
Trigger mode: 0
Integration Time (sec): 1.000000E-1
Scans to average: 1
Electric dark correction enabled: true
Nonlinearity correction enabled: false
Boxcar width: 0
XAxis mode: Wavelengths
Number of Pixels in Spectrum: 2048
>>>>>Begin Spectral Data<<<<<
338.578	-77.53
338.961	-77.53
339.343	-77.53
339.725	-10.06
340.108	5.51
340.49	13.3
340.872	47.04
341.254	28.87
341.636	-38.6
342.018	-51.58
342.4	-95.7
342.782	-12.65
343.164	41.85
343.546	-33.41
343.928	26.28
344.309	-4.87
344.691	47.04
345.073	31.47
345.455	104.13
345.836	-43.79
346.218	-59.37
346.599	-119.06
346.981	67.8
347.362	127.49
347.744	-15.25
348.125	-17.84
348.506	36.66
348.888	36.66
349.269	13.3
349.65	67.8
350.031	54.82
350.413	70.4
350.794	-28.22
351.175	28.87
351.556	13.3
351.937	2.92
352.318	-41.2
352.698	-12.65
353.079	5.51
353.46	-23.03
353.841	-7.46
354.222	-46.39
354.602	-15.25
354.983	-23.03
355.363	-56.77
355.744	23.68
356.124	148.25
356.505	-10.06
356.885	26.28
357.266	-43.79
357.646	54.82
358.026	13.3
358.407	41.85
358.787	28.87
359.167	36.66
359.547	-2.27
359.927	60.01
360.307	34.06
360.687	-10.06
361.067	91.16
361.447	36.66
361.827	-4.87
362.207	8.11
362.587	-7.46
362.966	-30.82
363.346	18.49
363.726	2.92
364.105	0.32
364.485	18.49
364.865	-33.41
365.244	-20.44
365.624	-33.41
366.003	41.85
366.382	5.51
366.762	52.23
367.141	39.25
367.52	47.04
367.899	-46.39
368.279	-28.22
368.658	36.66
369.037	57.42
369.416	-17.84
369.795	-4.87
370.174	2.92
370.553	54.82
370.932	5.51
371.311	23.68
371.689	23.68
372.068	-59.37
372.447	18.49
372.825	44.44
373.204	-2.27
373.583	-12.65
373.961	85.97
374.34	57.42
374.718	-69.75
375.097	-20.44
375.475	10.71
375.853	54.82
376.232	-17.84
376.61	18.49
376.988	54.82
377.366	23.68
377.744	-80.13
378.122	106.73
378.5	-51.58
378.878	2.92
379.256	23.68
379.634	13.3
380.012	44.44
380.39	26.28
380.768	-23.03
381.145	-7.46
381.523	-2.27
381.901	54.82
382.278	34.06
382.656	62.61
383.033	28.87
383.411	109.32
383.788	-59.37
384.166	-7.46
384.543	26.28
384.921	26.28
385.298	44.44
385.675	44.44
386.052	-74.94
386.429	75.59
386.806	0.32
387.184	-7.46
387.561	85.97
387.938	-72.34
388.314	65.21
388.691	-36.01
389.068	39.25
389.445	-7.46
389.822	0.32
390.198	60.01
390.575	2.92
390.952	-56.77
391.328	8.11
391.705	26.28
392.081	78.18
392.458	-43.79
392.834	-90.51
393.211	72.99
393.587	34.06
393.963	-82.72
394.34	-46.39
394.716	44.44
395.092	57.42
395.468	-2.27
395.844	34.06
396.22	117.11
396.596	-59.37
396.972	-36.01
397.348	-15.25
397.724	75.59
398.1	49.63
398.476	137.87
398.851	-7.46
399.227	8.11
399.603	96.35
399.978	41.85
400.354	49.63
400.729	34.06
401.105	57.42
401.48	-7.46
401.856	49.63
402.231	93.75
402.606	8.11
402.982	-69.75
403.357	8.11
403.732	-56.77
404.107	117.11
404.482	26.28
404.857	70.4
405.232	67.8
405.607	26.28
405.982	44.44
406.357	-41.2
406.732	98.94
407.107	13.3
407.482	-69.75
407.856	-59.37
408.231	-4.87
408.606	13.3
408.98	-38.6
409.355	2.92
409.729	-23.03
410.104	8.11
410.478	-28.22
410.852	-23.03
411.227	-2.27
411.601	26.28
411.975	21.09
412.35	75.59
412.724	-113.87
413.098	26.28
413.472	98.94
413.846	-33.41
414.22	60.01
414.594	18.49
414.968	-38.6
415.342	2.92
415.715	31.47
416.089	-4.87
416.463	-82.72
416.837	-28.22
417.21	-59.37
417.584	62.61
417.957	39.25
418.331	28.87
418.704	-7.46
419.078	54.82
419.451	106.73
419.824	62.61
420.198	10.71
420.571	80.78
420.944	111.92
421.317	-17.84
421.69	41.85
422.064	0.32
422.437	5.51
422.81	-82.72
423.182	70.4
423.555	39.25
423.928	-46.39
424.301	26.28
424.674	57.42
425.047	-4.87
425.419	-30.82
425.792	-17.84
426.164	-33.41
426.537	-54.18
426.91	62.61
427.282	111.92
427.654	91.16
428.027	52.23
428.399	57.42
428.771	49.63
429.144	88.56
429.516	57.42
429.888	15.9
430.26	15.9
430.632	-20.44
431.004	-12.65
431.376	62.61
431.748	31.47
432.12	-64.56
432.492	26.28
432.864	41.85
433.236	-74.94
433.607	-59.37
433.979	-15.25
434.351	52.23
434.722	21.09
435.094	41.85
435.465	75.59
435.837	127.49
436.208	298.78
436.58	249.47
436.951	65.21
437.322	163.82
437.693	44.44
438.065	0.32
438.436	13.3
438.807	-48.99
439.178	47.04
439.549	-59.37
439.92	-23.03
440.291	2.92
440.662	-23.03
441.033	91.16
441.403	106.73
441.774	-51.58
442.145	111.92
442.516	72.99
442.886	119.71
443.257	106.73
443.627	-10.06
443.998	5.51
444.368	-41.2
444.739	0.32
445.109	-17.84
445.479	54.82
445.85	62.61
446.22	-30.82
446.59	-23.03
446.96	117.11
447.33	44.44
447.7	65.21
448.07	70.4
448.44	31.47
448.81	70.4
449.18	23.68
449.55	-69.75
449.92	-15.25
450.29	-100.89
450.659	-77.53
451.029	54.82
451.399	60.01
451.768	70.4
452.138	75.59
452.507	26.28
452.877	75.59
453.246	-72.34
453.615	47.04
453.985	-28.22
454.354	78.18
454.723	8.11
455.092	26.28
455.462	-15.25
455.831	-74.94
456.2	101.54
456.569	119.71
456.938	39.25
457.307	-116.46
457.675	124.9
458.044	78.18
458.413	44.44
458.782	5.51
459.15	31.47
459.519	60.01
459.888	5.51
460.256	75.59
460.625	88.56
460.993	18.49
461.362	-10.06
461.73	23.68
462.098	85.97
462.467	39.25
462.835	-4.87
463.203	78.18
463.571	34.06
463.939	34.06
464.307	-46.39
464.675	54.82
465.043	75.59
465.411	34.06
465.779	54.82
466.147	31.47
466.515	49.63
466.883	39.25
467.25	101.54
467.618	111.92
467.986	49.63
468.353	-4.87
468.721	-10.06
469.088	-4.87
469.456	57.42
469.823	88.56
470.19	49.63
470.558	109.32
470.925	78.18
471.292	-15.25
471.659	80.78
472.027	57.42
472.394	39.25
472.761	65.21
473.128	85.97
473.495	52.23
473.862	-28.22
474.228	47.04
474.595	28.87
474.962	80.78
475.329	119.71
475.695	2.92
476.062	23.68
476.429	114.51
476.795	72.99
477.162	-25.63
477.528	-33.41
477.895	39.25
478.261	36.66
478.627	18.49
478.994	-17.84
479.36	-56.77
479.726	-10.06
480.092	65.21
480.458	26.28
480.824	80.78
481.19	0.32
481.556	41.85
481.922	23.68
482.288	83.37
482.654	57.42
483.02	-43.79
483.385	49.63
483.751	70.4
484.117	80.78
484.482	-7.46
484.848	31.47
485.213	83.37
485.579	83.37
485.944	-36.01
486.31	34.06
486.675	75.59
487.04	80.78
487.406	101.54
487.771	156.04
488.136	44.44
488.501	2.92
488.866	67.8
489.231	135.28
489.596	60.01
489.961	174.21
490.326	75.59
490.691	23.68
491.056	111.92
491.42	-20.44
491.785	104.13
492.15	44.44
492.514	70.4
492.879	15.9
493.243	57.42
493.608	161.23
493.972	91.16
494.337	124.9
494.701	-10.06
495.065	10.71
495.43	60.01
495.794	52.23
496.158	8.11
496.522	8.11
496.886	65.21
497.25	83.37
497.614	49.63
497.978	57.42
498.342	52.23
498.706	-12.65
499.07	106.73
499.433	0.32
499.797	26.28
500.161	-12.65
500.524	15.9
500.888	96.35
501.251	78.18
501.615	62.61
501.978	31.47
502.342	-64.56
502.705	65.21
503.068	67.8
503.432	52.23
503.795	44.44
504.158	130.09
504.521	54.82
504.884	78.18
505.247	67.8
505.61	-7.46
505.973	31.47
506.336	65.21
506.699	-7.46
507.062	-25.63
507.424	49.63
507.787	15.9
508.15	8.11
508.512	39.25
508.875	-10.06
509.238	109.32
509.6	18.49
509.962	36.66
510.325	52.23
510.687	36.66
511.049	18.49
511.412	98.94
511.774	-28.22
512.136	75.59
512.498	41.85
512.86	-4.87
513.222	-7.46
513.584	2.92
513.946	-23.03
514.308	47.04
514.67	65.21
515.032	44.44
515.393	122.3
515.755	41.85
516.117	-56.77
516.478	13.3
516.84	28.87
517.201	67.8
517.563	148.25
517.924	122.3
518.286	-7.46
518.647	41.85
519.008	62.61
519.37	2.92
519.731	-20.44
520.092	-43.79
520.453	39.25
520.814	10.71
521.175	158.63
521.536	109.32
521.897	31.47
522.258	-15.25
522.619	-17.84
522.979	60.01
523.34	47.04
523.701	52.23
524.061	-20.44
524.422	70.4
524.783	119.71
525.143	-33.41
525.504	34.06
525.864	96.35
526.224	41.85
526.585	41.85
526.945	88.56
527.305	34.06
527.665	101.54
528.025	-4.87
528.385	80.78
528.746	18.49
529.106	101.54
529.465	0.32
529.825	70.4
530.185	36.66
530.545	21.09
530.905	72.99
531.264	111.92
531.624	-15.25
531.984	21.09
532.343	-72.34
532.703	28.87
533.062	-51.58
533.422	39.25
533.781	36.66
534.141	41.85
534.5	36.66
534.859	150.85
535.218	52.23
535.577	10.71
535.937	44.44
536.296	49.63
536.655	54.82
537.014	41.85
537.373	62.61
537.731	-7.46
538.09	52.23
538.449	39.25
538.808	114.51
539.166	36.66
539.525	111.92
539.884	60.01
540.242	31.47
540.601	104.13
540.959	85.97
541.318	176.8
541.676	187.18
542.034	226.11
542.393	420.75
542.751	423.35
543.109	329.92
543.467	350.68
543.825	379.23
544.183	322.13
544.541	446.71
544.899	446.71
545.257	374.04
545.615	418.16
545.973	433.73
546.331	322.13
546.688	405.18
547.046	387.02
547.404	200.16
547.761	156.04
548.119	75.59
548.476	244.28
548.834	194.97
549.191	169.02
549.548	91.16
549.906	111.92
550.263	80.78
550.62	166.42
550.977	148.25
551.334	83.37
551.691	98.94
552.048	72.99
552.405	88.56
552.762	153.44
553.119	85.97
553.476	166.42
553.833	52.23
554.189	65.21
554.546	41.85
554.903	39.25
555.259	36.66
555.616	91.16
555.972	85.97
556.329	10.71
556.685	52.23
557.042	-7.46
557.398	36.66
557.754	54.82
558.11	-2.27
558.467	62.61
558.823	-33.41
559.179	67.8
559.535	-48.99
559.891	52.23
560.247	65.21
560.603	41.85
560.958	-10.06
561.314	-33.41
561.67	67.8
562.026	44.44
562.381	65.21
562.737	36.66
563.092	15.9
563.448	114.51
563.803	80.78
564.159	23.68
564.514	0.32
564.869	13.3
565.225	91.16
565.58	-41.2
565.935	18.49
566.29	91.16
566.645	18.49
567	41.85
567.355	-36.01
567.71	72.99
568.065	10.71
568.42	-15.25
568.775	-28.22
569.13	39.25
569.484	8.11
569.839	-30.82
570.193	18.49
570.548	-17.84
570.903	36.66
571.257	52.23
571.611	83.37
571.966	10.71
572.32	-7.46
572.674	39.25
573.029	-2.27
573.383	8.11
573.737	-54.18
574.091	54.82
574.445	124.9
574.799	93.75
575.153	-30.82
575.507	93.75
575.861	49.63
576.215	75.59
576.568	31.47
576.922	31.47
577.276	31.47
577.629	62.61
577.983	13.3
578.336	18.49
578.69	-54.18
579.043	78.18
579.397	124.9
579.75	-17.84
580.103	31.47
580.456	93.75
580.81	83.37
581.163	-116.46
581.516	65.21
581.869	122.3
582.222	104.13
582.575	-25.63
582.928	31.47
583.281	49.63
583.633	62.61
583.986	10.71
584.339	-2.27
584.691	10.71
585.044	-82.72
585.397	49.63
585.749	26.28
586.102	-4.87
586.454	67.8
586.806	93.75
587.159	-77.53
587.511	-168.37
587.863	-116.46
588.215	-74.94
588.567	-77.53
588.92	-113.87
589.272	-150.2
589.624	-20.44
589.975	-30.82
590.327	-124.25
590.679	-186.53
591.031	-93.1
591.383	-132.03
591.734	-163.18
592.086	-111.27
592.438	-116.46
592.789	-173.56
593.141	-266.99
593.492	-292.94
593.844	-355.22
594.195	-285.15
594.546	-251.41
594.898	-272.18
595.249	-212.49
595.6	-129.44
595.951	-170.96
596.302	-87.91
596.653	-191.72
597.004	-191.72
597.355	-157.99
597.706	-106.08
598.057	-241.03
598.408	-235.84
598.758	-246.22
599.109	-399.34
599.46	-383.77
599.81	-404.53
600.161	-469.41
600.511	-547.27
600.862	-443.46
601.212	-318.89
601.562	-324.08
601.913	-305.91
602.263	-225.46
602.613	-298.13
602.963	-215.08
603.313	-259.2
603.663	-264.39
604.013	-220.27
604.363	-225.46
604.713	-204.7
605.063	-279.96
605.413	-295.53
605.763	-290.34
606.112	-313.7
606.462	-324.08
606.812	-383.77
607.161	-497.96
607.511	-466.82
607.86	-643.3
608.21	-622.53
608.559	-705.58
608.908	-1029.99
609.258	-1289.51
609.607	-1499.72
609.956	-2332.8
610.305	-3230.75
610.654	-5527.54
611.003	-9695.49
611.352	-14896.35
611.701	-18231.24
612.05	-17429.31
612.399	-14974.21
612.748	-11885.87
613.097	-9555.35
613.445	-7837.3
613.794	-6430.68
614.143	-5953.16
614.491	-5426.32
614.84	-5029.25
615.188	-4723.01
615.537	-4232.51
615.885	-3682.32
616.233	-3069.84
616.581	-2646.82
616.93	-2330.2
617.278	-1995.42
617.626	-1746.27
617.974	-1730.7
618.322	-1481.56
618.67	-1468.58
619.018	-1515.3
619.366	-1593.15
619.714	-1637.27
620.061	-1658.03
620.409	-1764.44
620.757	-1855.27
621.104	-1959.08
621.452	-1948.7
621.799	-1694.37
622.147	-1764.44
622.494	-1642.46
622.842	-1611.32
623.189	-1564.61
623.536	-1499.72
623.884	-1556.82
624.231	-1577.58
624.578	-1541.25
624.925	-1507.51
625.272	-1468.58
625.619	-1297.3
625.966	-1445.22
626.313	-1245.39
626.66	-1209.06
627.007	-1240.2
627.353	-1167.53
627.7	-1136.39
628.047	-1258.37
628.393	-1118.22
628.74	-1253.18
629.086	-1354.39
629.433	-1237.61
629.779	-1375.15
630.125	-1569.8
630.472	-1844.89
630.818	-2169.3
631.164	-2807.73
631.51	-3098.39
631.857	-3041.3
632.203	-2530.03
632.549	-1987.63
632.895	-1382.94
633.24	-952.13
633.586	-765.27
633.932	-562.84
634.278	-427.89
634.624	-435.68
634.969	-355.22
635.315	-173.56
635.66	-311.1
636.006	-331.87
636.351	-295.53
636.697	-259.2
637.042	-178.75
637.388	-274.77
637.733	-134.63
638.078	-64.56
638.423	605.02
638.768	965.75
639.113	1059.18
639.458	1274.59
639.803	1355.04
640.148	968.35
640.493	701.04
640.838	397.4
641.183	109.32
641.527	44.44
641.872	-74.94
642.217	-269.58
642.561	-100.89
642.906	-292.94
643.25	-215.08
643.595	-243.63
643.939	-254.01
644.284	-334.46
644.628	-134.63
644.972	-209.89
645.316	-266.99
645.66	-204.7
646.004	-373.39
646.348	-334.46
646.692	-290.34
647.036	-168.37
647.38	-220.27
647.724	-363.01
648.068	-243.63
648.412	-321.49
648.755	-285.15
649.099	-316.29
649.443	-292.94
649.786	-438.27
650.13	-464.22
650.473	-817.18
650.816	-985.87
651.16	-1032.58
651.503	-1006.63
651.846	-728.94
652.189	-630.32
652.533	-461.63
652.876	-542.08
653.219	-487.58
653.562	-466.82
653.905	-500.56
654.247	-435.68
654.59	-316.29
654.933	-350.03
655.276	-261.79
655.619	-238.44
655.961	-212.49
656.304	-194.32
656.646	-168.37
656.989	-212.49
657.331	-93.1
657.674	-254.01
658.016	-334.46
658.358	-285.15
658.701	-191.72
659.043	-254.01
659.385	-331.87
659.727	-217.68
660.069	-173.56
660.411	-173.56
660.753	-77.53
661.095	-126.84
661.437	-90.51
661.778	-251.41
662.12	-266.99
662.462	-448.65
662.804	-695.2
663.145	-749.7
663.487	-466.82
663.828	-500.56
664.17	-394.15
664.511	-318.89
664.852	-337.06
665.194	-326.68
665.535	-108.68
665.876	-199.51
666.217	-157.99
666.558	-181.34
666.899	-246.22
667.24	-246.22
667.581	-311.1
667.922	-269.58
668.263	-204.7
668.604	-241.03
668.944	-318.89
669.285	-222.87
669.626	-303.32
669.966	-199.51
670.307	-217.68
670.647	-178.75
670.988	-181.34
671.328	-108.68
671.669	-191.72
672.009	-228.06
672.349	-228.06
672.689	-90.51
673.029	-243.63
673.369	-20.44
673.71	-222.87
674.049	-173.56
674.389	-241.03
674.729	-137.22
675.069	-95.7
675.409	-108.68
675.749	-142.41
676.088	-124.25
676.428	-145.01
676.768	-228.06
677.107	-163.18
677.447	-261.79
677.786	-69.75
678.125	-100.89
678.465	-145.01
678.804	-183.94
679.143	-274.77
679.482	-230.65
679.821	-95.7
680.161	-134.63
680.5	-168.37
680.839	-142.41
681.177	-248.82
681.516	-119.06
681.855	-165.77
682.194	-134.63
682.533	-157.99
682.871	-181.34
683.21	-147.6
683.549	-160.58
683.887	-142.41
684.225	-145.01
684.564	-10.06
684.902	-150.2
685.241	-77.53
685.579	-48.99
685.917	-25.63
686.255	-183.94
686.593	-264.39
686.931	-243.63
687.269	-272.18
687.607	-510.94
687.945	-464.22
688.283	-573.22
688.621	-557.65
688.959	-414.91
689.296	-363.01
689.634	-313.7
689.972	-248.82
690.309	-204.7
690.647	-129.44
690.984	-217.68
691.322	-186.53
691.659	-77.53
691.996	-23.03
692.333	-82.72
692.671	-90.51
693.008	-134.63
693.345	-137.22
693.682	-326.68
694.019	-388.96
694.356	-329.27
694.693	-324.08
695.03	-248.82
695.366	-264.39
695.703	-194.32
696.04	-106.08
696.376	-186.53
696.713	-170.96
697.05	-157.99
697.386	-132.03
697.722	47.04
698.059	-25.63
698.395	18.49
698.731	-25.63
699.068	-23.03
699.404	-98.29
699.74	-48.99
700.076	-124.25
700.412	-77.53
700.748	-30.82
701.084	-51.58
701.42	-69.75
701.756	39.25
702.091	-139.82
702.427	-64.56
702.763	-56.77
703.098	-106.08
703.434	-67.15
703.769	-126.84
704.105	-155.39
704.44	-59.37
704.776	-228.06
705.111	-220.27
705.446	-285.15
705.781	-386.37
706.117	-464.22
706.452	-617.34
706.787	-804.2
707.122	-1209.06
707.457	-1131.2
707.792	-1336.22
708.126	-1151.96
708.461	-1029.99
708.796	-1193.49
709.131	-1421.87
709.465	-1580.18
709.8	-1528.27
710.134	-1177.91
710.469	-975.49
710.803	-695.2
711.138	-581.01
711.472	-513.53
711.806	-664.06
712.14	-793.82
712.475	-1100.06
712.809	-1235.01
713.143	-1193.49
713.477	-1009.22
713.811	-744.51
714.145	-606.96
714.479	-420.1
714.812	-287.75
715.146	-233.25
715.48	-95.7
715.814	-93.1
716.147	-61.96
716.481	-106.08
716.814	-48.99
717.148	-41.2
717.481	-17.84
717.814	-4.87
718.148	-82.72
718.481	-80.13
718.814	54.82
719.147	101.54
719.48	-43.79
719.813	-69.75
720.146	8.11
720.479	-80.13
720.812	10.71
721.145	-61.96
721.478	18.49
721.81	-150.2
722.143	2.92
722.476	60.01
722.808	-41.2
723.141	-119.06
723.473	-74.94
723.806	-28.22
724.138	47.04
724.47	-74.94
724.803	-23.03
725.135	-20.44
725.467	-59.37
725.799	34.06
726.131	-72.34
726.463	-61.96
726.795	-12.65
727.127	117.11
727.459	44.44
727.791	28.87
728.122	26.28
728.454	62.61
728.786	8.11
729.117	75.59
729.449	-87.91
729.78	-38.6
730.112	-69.75
730.443	-30.82
730.774	-38.6
731.106	-46.39
731.437	65.21
731.768	-38.6
732.099	-23.03
732.43	-28.22
732.761	-126.84
733.092	-43.79
733.423	-28.22
733.754	31.47
734.085	-2.27
734.416	-10.06
734.746	21.09
735.077	-59.37
735.407	-67.15
735.738	-61.96
736.068	75.59
736.399	21.09
736.729	-12.65
737.06	49.63
737.39	54.82
737.72	18.49
738.05	-48.99
738.38	-41.2
738.71	41.85
739.041	13.3
739.37	-25.63
739.7	13.3
740.03	8.11
740.36	13.3
740.69	13.3
741.02	-61.96
741.349	-7.46
741.679	62.61
742.008	-80.13
742.338	-23.03
742.667	13.3
742.997	-85.32
743.326	-48.99
743.655	-38.6
743.984	109.32
744.314	-85.32
744.643	-20.44
744.972	13.3
745.301	-137.22
745.63	-20.44
745.959	15.9
746.288	-48.99
746.616	-95.7
746.945	36.66
747.274	18.49
747.603	-51.58
747.931	2.92
748.26	15.9
748.588	148.25
748.917	57.42
749.245	10.71
749.573	-12.65
749.902	-25.63
750.23	8.11
750.558	-126.84
750.886	-38.6
751.214	26.28
751.542	-33.41
751.87	-15.25
752.198	-36.01
752.526	-38.6
752.854	-48.99
753.182	5.51
753.509	-74.94
753.837	-15.25
754.165	39.25
754.492	-64.56
754.82	-67.15
755.147	88.56
755.474	-30.82
755.802	52.23
756.129	15.9
756.456	70.4
756.783	-2.27
757.111	44.44
757.438	-82.72
757.765	13.3
758.092	78.18
758.418	36.66
758.745	-132.03
759.072	15.9
759.399	-178.75
759.726	-261.79
760.052	-305.91
760.379	-474.6
760.705	-500.56
761.032	-430.49
761.358	-254.01
761.685	-277.37
762.011	-116.46
762.337	-129.44
762.663	-15.25
762.99	28.87
763.316	-17.84
763.642	47.04
763.968	5.51
764.294	-67.15
764.62	-98.29
764.946	-74.94
765.271	67.8
765.597	85.97
765.923	-121.65
766.248	-7.46
766.574	15.9
766.9	8.11
767.225	-7.46
767.55	-33.41
767.876	2.92
768.201	-43.79
768.526	5.51
768.852	91.16
769.177	-4.87
769.502	-54.18
769.827	-98.29
770.152	-59.37
770.477	-46.39
770.802	-17.84
771.127	93.75
771.451	-36.01
771.776	39.25
772.101	36.66
772.425	-100.89
772.75	0.32
773.075	-12.65
773.399	5.51
773.723	-30.82
774.048	-33.41
774.372	75.59
774.696	-56.77
775.02	-54.18
775.345	60.01
775.669	57.42
775.993	-23.03
776.317	47.04
776.641	-25.63
776.965	0.32
777.288	-10.06
777.612	-139.82
777.936	-4.87
778.26	-4.87
778.583	49.63
778.907	70.4
779.23	65.21
779.554	-25.63
779.877	0.32
780.2	78.18
780.524	-67.15
780.847	54.82
781.17	54.82
781.493	-25.63
781.816	-106.08
