Data from Subt2_19-04-44-635.txt Node
Date: Wed Feb 22 19:04:44 CST 2023
User: Optics Lab
Spectrometer: FLMS14302
Trigger mode: 0
Integration Time (sec): 1.000000E-1
Scans to average: 1
Electric dark correction enabled: true
Nonlinearity correction enabled: false
Boxcar width: 0
XAxis mode: Wavelengths
Number of Pixels in Spectrum: 2048
>>>>>Begin Spectral Data<<<<<
338.578	-29.85
338.961	-29.85
339.343	-29.85
339.725	1.3
340.108	68.77
340.49	-19.46
340.872	55.8
341.254	3.89
341.636	37.63
342.018	-22.06
342.4	-97.32
342.782	16.87
343.164	63.58
343.546	-6.49
343.928	-27.25
344.309	-1.3
344.691	-27.25
345.073	-19.46
345.455	27.25
345.836	32.44
346.218	-16.87
346.599	-73.96
346.981	22.06
347.362	86.94
347.744	-76.56
348.125	42.82
348.506	84.35
348.888	58.39
349.269	24.65
349.65	-22.06
350.031	68.77
350.413	16.87
350.794	3.89
351.175	32.44
351.556	55.8
351.937	24.65
352.318	-11.68
352.698	-16.87
353.079	-45.42
353.46	-32.44
353.841	-16.87
354.222	9.08
354.602	-42.82
354.983	55.8
355.363	-81.75
355.744	16.87
356.124	97.32
356.505	-71.37
356.885	-1.3
357.266	22.06
357.646	123.27
358.026	-6.49
358.407	63.58
358.787	71.37
359.167	1.3
359.547	-55.8
359.927	81.75
360.307	11.68
360.687	-16.87
361.067	73.96
361.447	45.42
361.827	27.25
362.207	-14.27
362.587	19.46
362.966	32.44
363.346	-3.89
363.726	3.89
364.105	-84.35
364.485	1.3
364.865	22.06
365.244	9.08
365.624	-53.2
366.003	3.89
366.382	22.06
366.762	53.2
367.141	27.25
367.52	9.08
367.899	-35.04
368.279	16.87
368.658	22.06
369.037	40.23
369.416	19.46
369.795	24.65
370.174	76.56
370.553	27.25
370.932	42.82
371.311	-35.04
371.689	84.35
372.068	-3.89
372.447	40.23
372.825	37.63
373.204	24.65
373.583	110.3
373.961	50.61
374.34	76.56
374.718	-37.63
375.097	3.89
375.475	55.8
375.853	97.32
376.232	16.87
376.61	-50.61
376.988	97.32
377.366	3.89
377.744	9.08
378.122	-53.2
378.5	-40.23
378.878	-53.2
379.256	-63.58
379.634	-6.49
380.012	16.87
380.39	6.49
380.768	-42.82
381.145	-86.94
381.523	-63.58
381.901	92.13
382.278	-42.82
382.656	37.63
383.033	55.8
383.411	115.49
383.788	-35.04
384.166	-45.42
384.543	3.89
384.921	45.42
385.298	105.11
385.675	76.56
386.052	-53.2
386.429	79.15
386.806	9.08
387.184	42.82
387.561	11.68
387.938	-53.2
388.314	-11.68
388.691	-53.2
389.068	68.77
389.445	22.06
389.822	19.46
390.198	1.3
390.575	-32.44
390.952	-53.2
391.328	-76.56
391.705	24.65
392.081	73.96
392.458	-58.39
392.834	-1.3
393.211	55.8
393.587	27.25
393.963	-133.65
394.34	-60.99
394.716	-24.65
395.092	-14.27
395.468	19.46
395.844	16.87
396.22	73.96
396.596	-105.11
396.972	-1.3
397.348	35.04
397.724	9.08
398.1	-19.46
398.476	99.92
398.851	-11.68
399.227	-92.13
399.603	-35.04
399.978	58.39
400.354	-1.3
400.729	-32.44
401.105	-40.23
401.48	45.42
401.856	-58.39
402.231	123.27
402.606	-42.82
402.982	1.3
403.357	-45.42
403.732	-27.25
404.107	11.68
404.482	-35.04
404.857	89.54
405.232	24.65
405.607	128.46
405.982	63.58
406.357	-53.2
406.732	-22.06
407.107	-14.27
407.482	-50.61
407.856	-40.23
408.231	-6.49
408.606	40.23
408.98	-16.87
409.355	16.87
409.729	16.87
410.104	22.06
410.478	24.65
410.852	-19.46
411.227	-42.82
411.601	35.04
411.975	-14.27
412.35	73.96
412.724	-29.85
413.098	24.65
413.472	97.32
413.846	-53.2
414.22	-14.27
414.594	58.39
414.968	6.49
415.342	27.25
415.715	29.85
416.089	9.08
416.463	-58.39
416.837	-42.82
417.21	35.04
417.584	24.65
417.957	35.04
418.331	-1.3
418.704	55.8
419.078	-3.89
419.451	86.94
419.824	58.39
420.198	-3.89
420.571	14.27
420.944	76.56
421.317	29.85
421.69	40.23
422.064	-1.3
422.437	-6.49
422.81	-22.06
423.182	14.27
423.555	63.58
423.928	-6.49
424.301	-27.25
424.674	45.42
425.047	-50.61
425.419	-35.04
425.792	1.3
426.164	6.49
426.537	-40.23
426.91	-29.85
427.282	-6.49
427.654	16.87
428.027	45.42
428.399	22.06
428.771	63.58
429.144	24.65
429.516	81.75
429.888	-66.18
430.26	73.96
430.632	-19.46
431.004	37.63
431.376	48.01
431.748	107.7
432.12	-3.89
432.492	32.44
432.864	14.27
433.236	-48.01
433.607	-42.82
433.979	-16.87
434.351	79.15
434.722	27.25
435.094	42.82
435.465	71.37
435.837	172.58
436.208	315.32
436.58	346.46
436.951	131.06
437.322	73.96
437.693	50.61
438.065	16.87
438.436	-1.3
438.807	14.27
439.178	22.06
439.549	-107.7
439.92	19.46
440.291	-9.08
440.662	-14.27
441.033	131.06
441.403	71.37
441.774	-63.58
442.145	84.35
442.516	29.85
442.886	50.61
443.257	86.94
443.627	-58.39
443.998	32.44
444.368	3.89
444.739	6.49
445.109	-29.85
445.479	107.7
445.85	58.39
446.22	32.44
446.59	-11.68
446.96	42.82
447.33	27.25
447.7	133.65
448.07	-35.04
448.44	63.58
448.81	11.68
449.18	102.51
449.55	86.94
449.92	24.65
450.29	-45.42
450.659	42.82
451.029	58.39
451.399	66.18
451.768	125.87
452.138	81.75
452.507	84.35
452.877	71.37
453.246	53.2
453.615	42.82
453.985	73.96
454.354	94.73
454.723	115.49
455.092	58.39
455.462	-24.65
455.831	27.25
456.2	141.44
456.569	99.92
456.938	66.18
457.307	-58.39
457.675	138.85
458.044	92.13
458.413	123.27
458.782	97.32
459.15	86.94
459.519	76.56
459.888	63.58
460.256	50.61
460.625	76.56
460.993	35.04
461.362	66.18
461.73	115.49
462.098	9.08
462.467	73.96
462.835	-9.08
463.203	162.2
463.571	6.49
463.939	68.77
464.307	32.44
464.675	84.35
465.043	107.7
465.411	24.65
465.779	97.32
466.147	37.63
466.515	42.82
466.883	105.11
467.25	162.2
467.618	73.96
467.986	81.75
468.353	-9.08
468.721	-14.27
469.088	9.08
469.456	99.92
469.823	76.56
470.19	22.06
470.558	107.7
470.925	84.35
471.292	123.27
471.659	131.06
472.027	110.3
472.394	58.39
472.761	79.15
473.128	123.27
473.495	97.32
473.862	55.8
474.228	71.37
474.595	50.61
474.962	24.65
475.329	125.87
475.695	63.58
476.062	-1.3
476.429	89.54
476.795	141.44
477.162	58.39
477.528	37.63
477.895	-6.49
478.261	-16.87
478.627	92.13
478.994	92.13
479.36	3.89
479.726	-53.2
480.092	58.39
480.458	60.99
480.824	115.49
481.19	-32.44
481.556	66.18
481.922	29.85
482.288	11.68
482.654	94.73
483.02	105.11
483.385	92.13
483.751	123.27
484.117	79.15
484.482	-45.42
484.848	68.77
485.213	144.04
485.579	167.39
485.944	40.23
486.31	201.13
486.675	144.04
487.04	141.44
487.406	89.54
487.771	198.54
488.136	169.99
488.501	79.15
488.866	133.65
489.231	138.85
489.596	131.06
489.961	195.94
490.326	216.7
490.691	123.27
491.056	92.13
491.42	71.37
491.785	107.7
492.15	89.54
492.514	216.7
492.879	149.23
493.243	86.94
493.608	193.35
493.972	86.94
494.337	182.96
494.701	-1.3
495.065	128.46
495.43	97.32
495.794	102.51
496.158	154.42
496.522	84.35
496.886	40.23
497.25	11.68
497.614	84.35
497.978	115.49
498.342	16.87
498.706	55.8
499.07	105.11
499.433	68.77
499.797	110.3
500.161	138.85
500.524	79.15
500.888	37.63
501.251	81.75
501.615	29.85
501.978	-19.46
502.342	-1.3
502.705	60.99
503.068	53.2
503.432	102.51
503.795	1.3
504.158	37.63
504.521	92.13
504.884	110.3
505.247	50.61
505.61	32.44
505.973	123.27
506.336	79.15
506.699	24.65
507.062	42.82
507.424	105.11
507.787	40.23
508.15	24.65
508.512	32.44
508.875	22.06
509.238	136.25
509.6	112.89
509.962	89.54
510.325	42.82
510.687	42.82
511.049	-9.08
511.412	131.06
511.774	19.46
512.136	27.25
512.498	89.54
512.86	27.25
513.222	-48.01
513.584	76.56
513.946	-53.2
514.308	-27.25
514.67	102.51
515.032	71.37
515.393	120.68
515.755	234.87
516.117	14.27
516.478	1.3
516.84	128.46
517.201	40.23
517.563	133.65
517.924	151.82
518.286	22.06
518.647	-11.68
519.008	6.49
519.37	58.39
519.731	92.13
520.092	-45.42
520.453	94.73
520.814	-11.68
521.175	102.51
521.536	97.32
521.897	123.27
522.258	73.96
522.619	105.11
522.979	141.44
523.34	66.18
523.701	24.65
524.061	27.25
524.422	16.87
524.783	144.04
525.143	-19.46
525.504	118.08
525.864	144.04
526.224	45.42
526.585	-19.46
526.945	105.11
527.305	-55.8
527.665	27.25
528.025	63.58
528.385	79.15
528.746	16.87
529.106	211.51
529.465	35.04
529.825	89.54
530.185	9.08
530.545	29.85
530.905	144.04
531.264	232.27
531.624	29.85
531.984	32.44
532.343	-11.68
532.703	-24.65
533.062	-45.42
533.422	112.89
533.781	125.87
534.141	123.27
534.5	35.04
534.859	107.7
535.218	50.61
535.577	58.39
535.937	84.35
536.296	84.35
536.655	115.49
537.014	81.75
537.373	159.61
537.731	125.87
538.09	79.15
538.449	105.11
538.808	154.42
539.166	53.2
539.525	146.63
539.884	211.51
540.242	110.3
540.601	169.99
540.959	245.25
541.318	198.54
541.676	328.3
542.034	424.32
542.393	681.25
542.751	772.08
543.109	836.96
543.467	720.18
543.825	751.32
544.183	761.7
544.541	691.63
544.899	725.37
545.257	746.13
545.615	489.2
545.973	823.99
546.331	621.56
546.688	829.18
547.046	567.06
547.404	416.54
547.761	297.15
548.119	224.49
548.476	304.94
548.834	258.23
549.191	255.63
549.548	195.94
549.906	232.27
550.263	120.68
550.62	133.65
550.977	144.04
551.334	237.46
551.691	146.63
552.048	169.99
552.405	159.61
552.762	214.11
553.119	193.35
553.476	203.73
553.833	141.44
554.189	157.01
554.546	112.89
554.903	97.32
555.259	138.85
555.616	66.18
555.972	42.82
556.329	40.23
556.685	55.8
557.042	53.2
557.398	79.15
557.754	6.49
558.11	-29.85
558.467	94.73
558.823	1.3
559.179	138.85
559.535	112.89
559.891	84.35
560.247	22.06
560.603	68.77
560.958	40.23
561.314	97.32
561.67	125.87
562.026	99.92
562.381	123.27
562.737	81.75
563.092	55.8
563.448	99.92
563.803	86.94
564.159	73.96
564.514	11.68
564.869	84.35
565.225	138.85
565.58	19.46
565.935	22.06
566.29	110.3
566.645	27.25
567	3.89
567.355	50.61
567.71	22.06
568.065	19.46
568.42	76.56
568.775	149.23
569.13	81.75
569.484	6.49
569.839	-58.39
570.193	48.01
570.548	60.99
570.903	-1.3
571.257	55.8
571.611	79.15
571.966	29.85
572.32	-24.65
572.674	-53.2
573.029	29.85
573.383	19.46
573.737	-60.99
574.091	-22.06
574.445	92.13
574.799	102.51
575.153	55.8
575.507	141.44
575.861	-9.08
576.215	172.58
576.568	138.85
576.922	42.82
577.276	-22.06
577.629	79.15
577.983	118.08
578.336	3.89
578.69	-3.89
579.043	60.99
579.397	180.37
579.75	16.87
580.103	112.89
580.456	159.61
580.81	151.82
581.163	45.42
581.516	133.65
581.869	131.06
582.222	131.06
582.575	-11.68
582.928	32.44
583.281	123.27
583.633	24.65
583.986	195.94
584.339	86.94
584.691	63.58
585.044	24.65
585.397	169.99
585.749	201.13
586.102	94.73
586.454	115.49
586.806	94.73
587.159	-29.85
587.511	53.2
587.863	53.2
588.215	27.25
588.567	53.2
588.92	-60.99
589.272	-35.04
589.624	94.73
589.975	45.42
590.327	-81.75
590.679	-66.18
591.031	-32.44
591.383	-9.08
591.734	-68.77
592.086	16.87
592.438	-105.11
592.789	-169.99
593.141	-237.46
593.492	-229.68
593.844	-229.68
594.195	-188.15
594.546	-157.01
594.898	-195.94
595.249	-123.27
595.6	-71.37
595.951	-97.32
596.302	-71.37
596.653	-195.94
597.004	-102.51
597.355	-185.56
597.706	-115.49
598.057	-242.65
598.408	-107.7
598.758	-232.27
599.109	-310.13
599.46	-343.87
599.81	-463.25
600.161	-411.35
600.511	-416.54
600.862	-377.61
601.212	-294.56
601.562	-245.25
601.913	-271.2
602.263	-175.18
602.613	-214.11
602.963	-94.73
603.313	-151.82
603.663	-149.23
604.013	-175.18
604.363	-195.94
604.713	-169.99
605.063	-227.08
605.413	-338.68
605.763	-294.56
606.112	-273.8
606.462	-276.39
606.812	-346.46
607.161	-390.58
607.511	-437.3
607.86	-530.73
608.21	-652.7
608.559	-738.35
608.908	-971.92
609.258	-1311.89
609.607	-1439.06
609.956	-2163.13
610.305	-3045.51
610.654	-5324.13
611.003	-9276.69
611.352	-14223.21
611.701	-17373.83
612.05	-16595.26
612.399	-14469.76
612.748	-11500.81
613.097	-9235.16
613.445	-7649.47
613.794	-6242.85
614.143	-5599.23
614.491	-5251.47
614.84	-4880.35
615.188	-4638.99
615.537	-4132.92
615.885	-3587.92
616.233	-2967.66
616.581	-2536.85
616.93	-2173.51
617.278	-1903.61
617.626	-1708.97
617.974	-1545.47
618.322	-1335.25
618.67	-1439.06
619.018	-1465.01
619.366	-1490.97
619.714	-1545.47
620.061	-1631.11
620.409	-1677.82
620.757	-1644.08
621.104	-1836.13
621.452	-1779.04
621.799	-1625.92
622.147	-1742.7
622.494	-1620.73
622.842	-1602.56
623.189	-1465.01
623.536	-1477.99
623.884	-1452.04
624.231	-1407.92
624.578	-1516.92
624.925	-1436.47
625.272	-1309.3
625.619	-1301.51
625.966	-1330.06
626.313	-1244.42
626.66	-1138.01
627.007	-1208.08
627.353	-1148.39
627.7	-1114.66
628.047	-1223.66
628.393	-1197.7
628.74	-1034.2
629.086	-1200.3
629.433	-1221.06
629.779	-1275.56
630.125	-1423.49
630.472	-1734.92
630.818	-2217.63
631.164	-2798.97
631.51	-3003.99
631.857	-2993.61
632.203	-2425.25
632.549	-1810.18
632.895	-1363.8
633.24	-1018.63
633.586	-753.92
633.932	-603.39
634.278	-473.63
634.624	-426.92
634.969	-286.77
635.315	-266.01
635.66	-356.85
636.006	-307.54
636.351	-328.3
636.697	-203.73
637.042	-182.96
637.388	-349.06
637.733	-180.37
638.078	-206.32
638.423	14.27
638.768	229.68
639.113	465.85
639.458	382.8
639.803	297.15
640.148	73.96
640.493	53.2
640.838	63.58
641.183	-120.68
641.527	-141.44
641.872	-112.89
642.217	-237.46
642.561	-128.46
642.906	-237.46
643.25	-260.82
643.595	-169.99
643.939	-242.65
644.284	-317.92
644.628	-123.27
644.972	-232.27
645.316	-312.73
645.66	-291.96
646.004	-294.56
646.348	-180.37
646.692	-245.25
647.036	-138.85
647.38	-284.18
647.724	-302.35
648.068	-271.2
648.412	-284.18
648.755	-307.54
649.099	-338.68
649.443	-268.61
649.786	-302.35
650.13	-499.58
650.473	-766.89
650.816	-982.3
651.16	-953.75
651.503	-958.94
651.846	-746.13
652.189	-605.99
652.533	-476.23
652.876	-476.23
653.219	-520.35
653.562	-434.7
653.905	-395.77
654.247	-517.75
654.59	-278.99
654.933	-351.66
655.276	-268.61
655.619	-214.11
655.961	-133.65
656.304	-216.7
656.646	-92.13
656.989	-211.51
657.331	-102.51
657.674	-284.18
658.016	-216.7
658.358	-247.85
658.701	-193.35
659.043	-232.27
659.385	-208.92
659.727	-159.61
660.069	-190.75
660.411	-195.94
660.753	-73.96
661.095	-133.65
661.437	-68.77
661.778	-203.73
662.12	-351.66
662.462	-421.73
662.804	-714.99
663.145	-561.87
663.487	-455.46
663.828	-496.99
664.17	-437.3
664.511	-408.75
664.852	-299.75
665.194	-336.08
665.535	-138.85
665.876	-92.13
666.217	-157.01
666.558	-190.75
666.899	-255.63
667.24	-219.3
667.581	-310.13
667.922	-229.68
668.263	-234.87
668.604	-242.65
668.944	-276.39
669.285	-284.18
669.626	-310.13
669.966	-247.85
670.307	-255.63
670.647	-141.44
670.988	-229.68
671.328	-206.32
671.669	-237.46
672.009	-253.04
672.349	-227.08
672.689	-136.25
673.029	-206.32
673.369	-81.75
673.71	-208.92
674.049	-164.8
674.389	-193.35
674.729	-175.18
675.069	-128.46
675.409	-40.23
675.749	-149.23
676.088	-86.94
676.428	-128.46
676.768	-188.15
677.107	-263.42
677.447	-214.11
677.786	-84.35
678.125	-125.87
678.465	-177.77
678.804	-89.54
679.143	-328.3
679.482	-198.54
679.821	-123.27
680.161	-198.54
680.5	-159.61
680.839	-144.04
681.177	-273.8
681.516	-164.8
681.855	-141.44
682.194	-177.77
682.533	-211.51
682.871	-260.82
683.21	-190.75
683.549	-81.75
683.887	-169.99
684.225	-79.15
684.564	-40.23
684.902	-167.39
685.241	-102.51
685.579	-48.01
685.917	-92.13
686.255	-159.61
686.593	-227.08
686.931	-169.99
687.269	-266.01
687.607	-450.27
687.945	-494.39
688.283	-496.99
688.621	-520.35
688.959	-450.27
689.296	-380.2
689.634	-281.58
689.972	-232.27
690.309	-175.18
690.647	-151.82
690.984	-138.85
691.322	-167.39
691.659	-63.58
691.996	-40.23
692.333	-136.25
692.671	-58.39
693.008	-131.06
693.345	-131.06
693.682	-398.37
694.019	-406.16
694.356	-367.23
694.693	-375.01
695.03	-253.04
695.366	-307.54
695.703	-193.35
696.04	-48.01
696.376	-203.73
696.713	-141.44
697.05	-35.04
697.386	-123.27
697.722	19.46
698.059	-60.99
698.395	32.44
698.731	-48.01
699.068	-71.37
699.404	-55.8
699.74	-60.99
700.076	-35.04
700.412	-99.92
700.748	-66.18
701.084	-42.82
701.42	-50.61
701.756	-32.44
702.091	-89.54
702.427	-105.11
702.763	-157.01
703.098	-24.65
703.434	-16.87
703.769	-144.04
704.105	-81.75
704.44	-162.2
704.776	-193.35
705.111	-206.32
705.446	-325.7
705.781	-393.18
706.117	-512.56
706.452	-559.27
706.787	-834.37
707.122	-1127.63
707.457	-1083.51
707.792	-1226.25
708.126	-1187.32
708.461	-1003.06
708.796	-1122.44
709.131	-1345.63
709.465	-1498.75
709.8	-1501.35
710.134	-1202.89
710.469	-977.11
710.803	-725.37
711.138	-582.63
711.472	-502.18
711.806	-600.8
712.14	-816.2
712.475	-1140.61
712.809	-1288.54
713.143	-1184.73
713.477	-1031.61
713.811	-730.56
714.145	-657.89
714.479	-375.01
714.812	-273.8
715.146	-188.15
715.48	-125.87
715.814	-89.54
716.147	-45.42
716.481	-32.44
716.814	-63.58
717.148	-3.89
717.481	3.89
717.814	-37.63
718.148	-94.73
718.481	-63.58
718.814	-37.63
719.147	53.2
719.48	-45.42
719.813	-24.65
720.146	-42.82
720.479	-19.46
720.812	6.49
721.145	3.89
721.478	35.04
721.81	-73.96
722.143	-9.08
722.476	-37.63
722.808	42.82
723.141	-6.49
723.473	-125.87
723.806	27.25
724.138	94.73
724.47	-50.61
724.803	6.49
725.135	27.25
725.467	-48.01
725.799	58.39
726.131	-102.51
726.463	-89.54
726.795	-6.49
727.127	86.94
727.459	55.8
727.791	-45.42
728.122	11.68
728.454	48.01
728.786	-63.58
729.117	-58.39
729.449	-53.2
729.78	48.01
730.112	-1.3
730.443	-53.2
730.774	-50.61
731.106	6.49
731.437	-11.68
731.768	-68.77
732.099	-50.61
732.43	6.49
732.761	-63.58
733.092	-40.23
733.423	-45.42
733.754	-55.8
734.085	-11.68
734.416	-6.49
734.746	-3.89
735.077	24.65
735.407	-11.68
735.738	-94.73
736.068	112.89
736.399	29.85
736.729	-120.68
737.06	50.61
737.39	-14.27
737.72	22.06
738.05	-14.27
738.38	-22.06
738.71	11.68
739.041	-63.58
739.37	-45.42
739.7	71.37
740.03	89.54
740.36	11.68
740.69	63.58
741.02	29.85
741.349	29.85
741.679	40.23
742.008	-40.23
742.338	-40.23
742.667	-19.46
742.997	-53.2
743.326	-55.8
743.655	27.25
743.984	27.25
744.314	-60.99
744.643	-110.3
744.972	3.89
745.301	-172.58
745.63	-79.15
745.959	-9.08
746.288	-141.44
746.616	-37.63
746.945	40.23
747.274	-89.54
747.603	-3.89
747.931	-27.25
748.26	35.04
748.588	66.18
748.917	3.89
749.245	-22.06
749.573	-16.87
749.902	45.42
750.23	50.61
750.558	37.63
750.886	-24.65
751.214	107.7
751.542	-97.32
751.87	35.04
752.198	-73.96
752.526	-79.15
752.854	-133.65
753.182	-6.49
753.509	1.3
753.837	42.82
754.165	81.75
754.492	-40.23
754.82	-16.87
755.147	1.3
755.474	-50.61
755.802	-48.01
756.129	58.39
756.456	27.25
756.783	1.3
757.111	-29.85
757.438	-35.04
757.765	14.27
758.092	81.75
758.418	27.25
758.745	-164.8
759.072	-32.44
759.399	-71.37
759.726	-198.54
760.052	-307.54
760.379	-429.51
760.705	-484.01
761.032	-476.23
761.358	-237.46
761.685	-268.61
762.011	-203.73
762.337	-141.44
762.663	-29.85
762.99	-60.99
763.316	58.39
763.642	37.63
763.968	35.04
764.294	-45.42
764.62	-112.89
764.946	-37.63
765.271	40.23
765.597	42.82
765.923	-42.82
766.248	53.2
766.574	37.63
766.9	24.65
767.225	48.01
767.55	-3.89
767.876	6.49
768.201	24.65
768.526	89.54
768.852	24.65
769.177	14.27
769.502	29.85
769.827	-92.13
770.152	-89.54
770.477	-53.2
770.802	-55.8
771.127	76.56
771.451	84.35
771.776	99.92
772.101	94.73
772.425	-42.82
772.75	84.35
773.075	-19.46
773.399	29.85
773.723	16.87
774.048	-40.23
774.372	-14.27
774.696	1.3
775.02	19.46
775.345	19.46
775.669	42.82
775.993	-32.44
776.317	53.2
776.641	40.23
776.965	45.42
777.288	22.06
777.612	-118.08
777.936	-3.89
778.26	32.44
778.583	55.8
778.907	22.06
779.23	-48.01
779.554	-37.63
779.877	6.49
780.2	-81.75
780.524	-24.65
780.847	-3.89
781.17	-9.08
781.493	-48.01
781.816	-24.65
