Data from Subt2_19-06-24-962.txt Node
Date: Wed Feb 22 19:06:24 CST 2023
User: Optics Lab
Spectrometer: FLMS14302
Trigger mode: 0
Integration Time (sec): 1.000000E-1
Scans to average: 1
Electric dark correction enabled: true
Nonlinearity correction enabled: false
Boxcar width: 0
XAxis mode: Wavelengths
Number of Pixels in Spectrum: 2048
>>>>>Begin Spectral Data<<<<<
338.578	40.55
338.961	40.55
339.343	40.55
339.725	1.62
340.108	40.55
340.49	-0.97
340.872	32.76
341.254	-58.07
341.636	-55.47
342.018	-94.4
342.4	-11.35
342.782	14.6
343.164	43.15
343.546	27.57
343.928	9.41
344.309	19.79
344.691	-24.33
345.073	76.88
345.455	-3.57
345.836	-21.74
346.218	45.74
346.599	-47.69
346.981	-3.57
347.362	9.41
347.744	-52.88
348.125	-3.57
348.506	37.96
348.888	50.93
349.269	24.98
349.65	-6.16
350.031	37.96
350.413	-13.95
350.794	76.88
351.175	-8.76
351.556	58.72
351.937	-60.66
352.318	-58.07
352.698	37.96
353.079	45.74
353.46	-37.31
353.841	1.62
354.222	-91.81
354.602	-73.64
354.983	1.62
355.363	-29.52
355.744	-16.54
356.124	56.12
356.505	-6.16
356.885	27.57
357.266	61.31
357.646	121
358.026	17.19
358.407	95.05
358.787	79.48
359.167	30.17
359.547	-109.97
359.927	144.36
360.307	-13.95
360.687	-19.14
361.067	50.93
361.447	84.67
361.827	-0.97
362.207	-42.5
362.587	22.38
362.966	4.22
363.346	-26.93
363.726	71.69
364.105	4.22
364.485	89.86
364.865	22.38
365.244	-24.33
365.624	4.22
366.003	89.86
366.382	-26.93
366.762	100.24
367.141	24.98
367.52	74.29
367.899	-3.57
368.279	27.57
368.658	1.62
369.037	17.19
369.416	9.41
369.795	19.79
370.174	58.72
370.553	-11.35
370.932	14.6
371.311	-6.16
371.689	56.12
372.068	-39.9
372.447	71.69
372.825	69.1
373.204	-8.76
373.583	-34.71
373.961	27.57
374.34	50.93
374.718	-65.85
375.097	17.19
375.475	37.96
375.853	115.81
376.232	87.26
376.61	-13.95
376.988	71.69
377.366	19.79
377.744	27.57
378.122	-55.47
378.5	-47.69
378.878	40.55
379.256	66.5
379.634	37.96
380.012	24.98
380.39	32.76
380.768	-26.93
381.145	-71.04
381.523	-63.26
381.901	95.05
382.278	-32.12
382.656	6.81
383.033	40.55
383.411	76.88
383.788	-71.04
384.166	-84.02
384.543	58.72
384.921	9.41
385.298	43.15
385.675	35.36
386.052	-26.93
386.429	58.72
386.806	66.5
387.184	84.67
387.561	53.53
387.938	6.81
388.314	4.22
388.691	-13.95
389.068	43.15
389.445	53.53
389.822	-39.9
390.198	48.34
390.575	1.62
390.952	37.96
391.328	-50.28
391.705	35.36
392.081	4.22
392.458	-21.74
392.834	-3.57
393.211	84.67
393.587	27.57
393.963	-76.24
394.34	35.36
394.716	-26.93
395.092	-32.12
395.468	-60.66
395.844	-6.16
396.22	131.38
396.596	-34.71
396.972	40.55
397.348	-94.4
397.724	-13.95
398.1	-58.07
398.476	76.88
398.851	97.65
399.227	-6.16
399.603	45.74
399.978	105.43
400.354	12
400.729	37.96
401.105	17.19
401.48	-3.57
401.856	-8.76
402.231	82.07
402.606	-91.81
402.982	32.76
403.357	-45.09
403.732	12
404.107	113.22
404.482	37.96
404.857	-0.97
405.232	87.26
405.607	84.67
405.982	50.93
406.357	-47.69
406.732	-6.16
407.107	-45.09
407.482	-73.64
407.856	-63.26
408.231	-8.76
408.606	-3.57
408.98	-8.76
409.355	19.79
409.729	14.6
410.104	50.93
410.478	69.1
410.852	50.93
411.227	-37.31
411.601	-34.71
411.975	-0.97
412.35	43.15
412.724	-11.35
413.098	58.72
413.472	97.65
413.846	-32.12
414.22	30.17
414.594	-11.35
414.968	32.76
415.342	-55.47
415.715	56.12
416.089	14.6
416.463	-26.93
416.837	-97
417.21	43.15
417.584	-45.09
417.957	1.62
418.331	-34.71
418.704	12
419.078	108.03
419.451	45.74
419.824	76.88
420.198	71.69
420.571	22.38
420.944	17.19
421.317	6.81
421.69	74.29
422.064	-73.64
422.437	-50.28
422.81	-6.16
423.182	89.86
423.555	84.67
423.928	-47.69
424.301	32.76
424.674	136.57
425.047	6.81
425.419	22.38
425.792	63.91
426.164	-37.31
426.537	-21.74
426.91	-120.35
427.282	63.91
427.654	32.76
428.027	32.76
428.399	-16.54
428.771	-3.57
429.144	27.57
429.516	22.38
429.888	-84.02
430.26	32.76
430.632	-42.5
431.004	22.38
431.376	-8.76
431.748	133.98
432.12	30.17
432.492	45.74
432.864	24.98
433.236	58.72
433.607	-68.45
433.979	14.6
434.351	12
434.722	17.19
435.094	37.96
435.465	58.72
435.837	100.24
436.208	141.76
436.58	276.72
436.951	149.55
437.322	118.41
437.693	110.62
438.065	17.19
438.436	45.74
438.807	-55.47
439.178	126.19
439.549	-99.59
439.92	40.55
440.291	12
440.662	-24.33
441.033	45.74
441.403	-34.71
441.774	-11.35
442.145	40.55
442.516	82.07
442.886	110.62
443.257	58.72
443.627	-6.16
443.998	9.41
444.368	-16.54
444.739	9.41
445.109	-19.14
445.479	32.76
445.85	82.07
446.22	1.62
446.59	-21.74
446.96	118.41
447.33	30.17
447.7	71.69
448.07	63.91
448.44	50.93
448.81	79.48
449.18	66.5
449.55	-47.69
449.92	12
450.29	-26.93
450.659	-19.14
451.029	63.91
451.399	48.34
451.768	14.6
452.138	37.96
452.507	89.86
452.877	-6.16
453.246	53.53
453.615	12
453.985	-11.35
454.354	170.31
454.723	84.67
455.092	24.98
455.462	-24.33
455.831	19.79
456.2	53.53
456.569	61.31
456.938	126.19
457.307	141.76
457.675	118.41
458.044	35.36
458.413	133.98
458.782	27.57
459.15	82.07
459.519	89.86
459.888	22.38
460.256	-32.12
460.625	24.98
460.993	-0.97
461.362	61.31
461.73	-6.16
462.098	14.6
462.467	-8.76
462.835	35.36
463.203	87.26
463.571	100.24
463.939	-24.33
464.307	-50.28
464.675	32.76
465.043	69.1
465.411	113.22
465.779	76.88
466.147	58.72
466.515	105.43
466.883	63.91
467.25	211.84
467.618	63.91
467.986	-32.12
468.353	113.22
468.721	6.81
469.088	-24.33
469.456	-11.35
469.823	154.74
470.19	45.74
470.558	162.53
470.925	71.69
471.292	-0.97
471.659	149.55
472.027	89.86
472.394	53.53
472.761	66.5
473.128	108.03
473.495	89.86
473.862	22.38
474.228	-6.16
474.595	69.1
474.962	63.91
475.329	115.81
475.695	40.55
476.062	6.81
476.429	45.74
476.795	118.41
477.162	126.19
477.528	-11.35
477.895	63.91
478.261	79.48
478.627	58.72
478.994	30.17
479.36	-16.54
479.726	-39.9
480.092	84.67
480.458	-3.57
480.824	92.46
481.19	-45.09
481.556	24.98
481.922	6.81
482.288	50.93
482.654	76.88
483.02	30.17
483.385	43.15
483.751	58.72
484.117	76.88
484.482	-29.52
484.848	149.55
485.213	56.12
485.579	191.07
485.944	-55.47
486.31	108.03
486.675	43.15
487.04	126.19
487.406	74.29
487.771	170.31
488.136	167.72
488.501	53.53
488.866	146.96
489.231	149.55
489.596	115.81
489.961	121
490.326	79.48
490.691	82.07
491.056	172.91
491.42	84.67
491.785	121
492.15	159.93
492.514	196.27
492.879	95.05
493.243	40.55
493.608	183.29
493.972	43.15
494.337	92.46
494.701	-55.47
495.065	76.88
495.43	-3.57
495.794	17.19
496.158	40.55
496.522	24.98
496.886	6.81
497.25	48.34
497.614	61.31
497.978	56.12
498.342	12
498.706	37.96
499.07	123.6
499.433	82.07
499.797	22.38
500.161	115.81
500.524	-19.14
500.888	-42.5
501.251	76.88
501.615	37.96
501.978	92.46
502.342	19.79
502.705	128.79
503.068	100.24
503.432	100.24
503.795	82.07
504.158	128.79
504.521	17.19
504.884	56.12
505.247	6.81
505.61	14.6
505.973	22.38
506.336	-6.16
506.699	37.96
507.062	-6.16
507.424	79.48
507.787	-63.26
508.15	-19.14
508.512	79.48
508.875	58.72
509.238	37.96
509.6	87.26
509.962	71.69
510.325	-37.31
510.687	69.1
511.049	-55.47
511.412	172.91
511.774	-47.69
512.136	84.67
512.498	97.65
512.86	35.36
513.222	-29.52
513.584	-45.09
513.946	-81.43
514.308	-8.76
514.67	37.96
515.032	17.19
515.393	22.38
515.755	63.91
516.117	69.1
516.478	14.6
516.84	63.91
517.201	76.88
517.563	178.1
517.924	95.05
518.286	22.38
518.647	-39.9
519.008	-29.52
519.37	-8.76
519.731	69.1
520.092	-78.83
520.453	79.48
520.814	-42.5
521.175	113.22
521.536	121
521.897	95.05
522.258	30.17
522.619	76.88
522.979	40.55
523.34	87.26
523.701	45.74
524.061	9.41
524.422	84.67
524.783	50.93
525.143	74.29
525.504	12
525.864	19.79
526.224	58.72
526.585	71.69
526.945	118.41
527.305	-0.97
527.665	30.17
528.025	79.48
528.385	40.55
528.746	37.96
529.106	149.55
529.465	19.79
529.825	22.38
530.185	-21.74
530.545	100.24
530.905	89.86
531.264	128.79
531.624	19.79
531.984	61.31
532.343	12
532.703	87.26
533.062	12
533.422	108.03
533.781	113.22
534.141	35.36
534.5	-8.76
534.859	128.79
535.218	6.81
535.577	50.93
535.937	-13.95
536.296	-73.64
536.655	12
537.014	84.67
537.373	50.93
537.731	-16.54
538.09	108.03
538.449	37.96
538.808	154.74
539.166	14.6
539.525	95.05
539.884	63.91
540.242	115.81
540.601	108.03
540.959	69.1
541.318	105.43
541.676	232.6
542.034	193.67
542.393	323.43
542.751	346.79
543.109	230
543.467	287.1
543.825	287.1
544.183	437.62
544.541	390.91
544.899	414.27
545.257	320.84
545.615	349.38
545.973	307.86
546.331	302.67
546.688	357.17
547.046	185.88
547.404	206.65
547.761	204.05
548.119	105.43
548.476	136.57
548.834	196.27
549.191	196.27
549.548	82.07
549.906	87.26
550.263	50.93
550.62	113.22
550.977	97.65
551.334	118.41
551.691	193.67
552.048	56.12
552.405	87.26
552.762	167.72
553.119	74.29
553.476	14.6
553.833	43.15
554.189	74.29
554.546	58.72
554.903	22.38
555.259	37.96
555.616	69.1
555.972	89.86
556.329	27.57
556.685	95.05
557.042	-39.9
557.398	27.57
557.754	66.5
558.11	-0.97
558.467	102.84
558.823	82.07
559.179	76.88
559.535	43.15
559.891	-42.5
560.247	92.46
560.603	128.79
560.958	32.76
561.314	61.31
561.67	133.98
562.026	82.07
562.381	100.24
562.737	30.17
563.092	19.79
563.448	71.69
563.803	97.65
564.159	66.5
564.514	76.88
564.869	30.17
565.225	102.84
565.58	37.96
565.935	43.15
566.29	58.72
566.645	14.6
567	-16.54
567.355	22.38
567.71	-32.12
568.065	76.88
568.42	-55.47
568.775	58.72
569.13	92.46
569.484	35.36
569.839	-71.04
570.193	-3.57
570.548	71.69
570.903	19.79
571.257	27.57
571.611	76.88
571.966	56.12
572.32	-16.54
572.674	87.26
573.029	14.6
573.383	12
573.737	-34.71
574.091	48.34
574.445	89.86
574.799	69.1
575.153	30.17
575.507	56.12
575.861	40.55
576.215	56.12
576.568	79.48
576.922	-16.54
577.276	32.76
577.629	61.31
577.983	22.38
578.336	-16.54
578.69	17.19
579.043	102.84
579.397	149.55
579.75	24.98
580.103	32.76
580.456	123.6
580.81	9.41
581.163	-107.38
581.516	110.62
581.869	69.1
582.222	61.31
582.575	-89.21
582.928	22.38
583.281	48.34
583.633	12
583.986	14.6
584.339	-117.76
584.691	-47.69
585.044	-13.95
585.397	95.05
585.749	162.53
586.102	69.1
586.454	22.38
586.806	-19.14
587.159	-42.5
587.511	-180.04
587.863	-143.71
588.215	-120.35
588.567	-89.21
588.92	-177.45
589.272	-102.19
589.624	-81.43
589.975	-71.04
590.327	-180.04
590.679	-193.02
591.031	-133.33
591.383	-133.33
591.734	-133.33
592.086	-94.4
592.438	-206
592.789	-190.43
593.141	-286.45
593.492	-335.76
593.844	-333.16
594.195	-281.26
594.546	-276.07
594.898	-252.71
595.249	-161.88
595.6	-109.97
595.951	-141.12
596.302	-81.43
596.653	-231.95
597.004	-133.33
597.355	-159.28
597.706	-128.14
598.057	-203.4
598.408	-200.81
598.758	-229.35
599.109	-374.69
599.46	-439.57
599.81	-496.66
600.161	-457.74
600.511	-545.97
600.862	-400.64
601.212	-312.4
601.562	-325.38
601.913	-369.5
602.263	-216.38
602.613	-273.47
602.963	-172.26
603.313	-115.16
603.663	-252.71
604.013	-159.28
604.363	-221.57
604.713	-257.9
605.063	-260.5
605.413	-229.35
605.763	-273.47
606.112	-250.12
606.462	-366.9
606.812	-359.12
607.161	-405.83
607.511	-486.28
607.86	-623.83
608.21	-590.09
608.559	-740.62
608.908	-966.4
609.258	-1316.76
609.607	-1443.93
609.956	-2266.62
610.305	-3359.21
610.654	-5606.69
611.003	-9699.39
611.352	-15027.41
611.701	-18144.3
612.05	-17469.53
612.399	-15048.17
612.748	-11843.05
613.097	-9595.58
613.445	-7859.36
613.794	-6457.93
614.143	-5816.91
614.491	-5453.57
614.84	-5118.79
615.188	-4724.31
615.537	-4303.88
615.885	-3694
616.233	-3120.45
616.581	-2554.69
616.93	-2212.12
617.278	-2017.47
617.626	-1815.05
617.974	-1586.66
618.322	-1495.83
618.67	-1610.02
619.018	-1547.74
619.366	-1659.33
619.714	-1625.59
620.061	-1693.07
620.409	-1739.78
620.757	-1838.4
621.104	-1926.64
621.452	-1851.38
621.799	-1729.4
622.147	-1763.14
622.494	-1610.02
622.842	-1680.09
623.189	-1617.81
623.536	-1451.71
623.884	-1542.55
624.231	-1521.78
624.578	-1503.62
624.925	-1503.62
625.272	-1441.33
625.619	-1379.05
625.966	-1363.47
626.313	-1233.71
626.66	-1233.71
627.007	-1254.47
627.353	-1231.12
627.7	-1132.5
628.047	-1244.09
628.393	-1148.07
628.74	-1127.31
629.086	-1280.43
629.433	-1189.59
629.779	-1347.9
630.125	-1493.24
630.472	-1783.9
630.818	-2186.17
631.164	-2837.57
631.51	-3133.43
631.857	-3014.05
632.203	-2461.26
632.549	-1991.52
632.895	-1415.38
633.24	-1023.5
633.586	-815.88
633.932	-571.93
634.278	-385.07
634.624	-343.54
634.969	-377.28
635.315	-211.19
635.66	-338.35
636.006	-281.26
636.351	-327.97
636.697	-234.54
637.042	-177.45
637.388	-252.71
637.733	-99.59
638.078	-24.33
638.423	863.24
638.768	2033.69
639.113	2262.08
639.458	2591.67
639.803	3069.2
640.148	2189.41
640.493	1441.98
640.838	803.55
641.183	432.43
641.527	110.62
641.872	-16.54
642.217	-58.07
642.561	-97
642.906	-242.33
643.25	-203.4
643.595	-195.62
643.939	-180.04
644.284	-229.35
644.628	-156.69
644.972	-200.81
645.316	-281.26
645.66	-309.81
646.004	-270.88
646.348	-203.4
646.692	-231.95
647.036	-296.83
647.38	-257.9
647.724	-333.16
648.068	-221.57
648.412	-304.62
648.755	-252.71
649.099	-315
649.443	-302.02
649.786	-366.9
650.13	-478.5
650.473	-771.76
650.816	-1007.93
651.16	-987.16
651.503	-940.45
651.846	-753.59
652.189	-538.19
652.533	-436.97
652.876	-499.26
653.219	-527.81
653.562	-507.05
653.905	-483.69
654.247	-499.26
654.59	-317.59
654.933	-299.43
655.276	-273.47
655.619	-195.62
655.961	-213.78
656.304	-221.57
656.646	-89.21
656.989	-252.71
657.331	-47.69
657.674	-231.95
658.016	-273.47
658.358	-268.28
658.701	-239.74
659.043	-283.85
659.385	-296.83
659.727	-138.52
660.069	-161.88
660.411	-203.4
660.753	-58.07
661.095	-133.33
661.437	-47.69
661.778	-325.38
662.12	-237.14
662.462	-413.62
662.804	-642
663.145	-693.9
663.487	-460.33
663.828	-447.35
664.17	-382.47
664.511	-444.76
664.852	-273.47
665.194	-294.24
665.535	-151.5
665.876	-174.85
666.217	-174.85
666.558	-172.26
666.899	-273.47
667.24	-257.9
667.581	-252.71
667.922	-250.12
668.263	-190.43
668.604	-309.81
668.944	-302.02
669.285	-221.57
669.626	-317.59
669.966	-117.76
670.307	-291.64
670.647	-109.97
670.988	-250.12
671.328	-112.57
671.669	-250.12
672.009	-250.12
672.349	-252.71
672.689	-146.31
673.029	-154.09
673.369	-78.83
673.71	-203.4
674.049	-94.4
674.389	-198.21
674.729	-198.21
675.069	-180.04
675.409	-55.47
675.749	-182.64
676.088	-193.02
676.428	-146.31
676.768	-141.12
677.107	-216.38
677.447	-242.33
677.786	-91.81
678.125	-63.26
678.465	-143.71
678.804	-138.52
679.143	-255.31
679.482	-198.21
679.821	-109.97
680.161	-156.69
680.5	-159.28
680.839	-206
681.177	-203.4
681.516	-112.57
681.855	-161.88
682.194	-130.74
682.533	-190.43
682.871	-226.76
683.21	-193.02
683.549	-164.47
683.887	-190.43
684.225	-73.64
684.564	-45.09
684.902	-107.38
685.241	-122.95
685.579	-50.28
685.917	-42.5
686.255	-120.35
686.593	-224.16
686.931	-247.52
687.269	-309.81
687.607	-483.69
687.945	-533
688.283	-481.09
688.621	-587.5
688.959	-416.21
689.296	-351.33
689.634	-291.64
689.972	-218.97
690.309	-133.33
690.647	-167.07
690.984	-193.02
691.322	-177.45
691.659	-151.5
691.996	-78.83
692.333	-26.93
692.671	-138.52
693.008	-213.78
693.345	-112.57
693.682	-377.28
694.019	-382.47
694.356	-346.14
694.693	-418.81
695.03	-281.26
695.366	-250.12
695.703	-115.16
696.04	-104.78
696.376	-174.85
696.713	-73.64
697.05	-109.97
697.386	-73.64
697.722	30.17
698.059	19.79
698.395	45.74
698.731	-13.95
699.068	-37.31
699.404	-84.02
699.74	-6.16
700.076	48.34
700.412	40.55
700.748	-50.28
701.084	-26.93
701.42	-117.76
701.756	-21.74
702.091	-120.35
702.427	-65.85
702.763	-60.66
703.098	-60.66
703.434	-115.16
703.769	-97
704.105	-177.45
704.44	-109.97
704.776	-164.47
705.111	-229.35
705.446	-286.45
705.781	-359.12
706.117	-512.24
706.452	-587.5
706.787	-826.26
707.122	-1233.71
707.457	-1176.62
707.792	-1319.36
708.126	-1166.24
708.461	-1093.57
708.796	-1176.62
709.131	-1394.62
709.465	-1558.12
709.8	-1532.16
710.134	-1270.05
710.469	-1046.85
710.803	-756.19
711.138	-634.21
711.472	-486.28
711.806	-597.88
712.14	-769.16
712.475	-1163.64
712.809	-1225.93
713.143	-1119.52
713.477	-1036.47
713.811	-727.64
714.145	-644.59
714.479	-421.4
714.812	-226.76
715.146	-151.5
715.48	-99.59
715.814	-156.69
716.147	-97
716.481	-58.07
716.814	-65.85
717.148	-24.33
717.481	45.74
717.814	12
718.148	-91.81
718.481	12
718.814	-47.69
719.147	-13.95
719.48	-42.5
719.813	-117.76
720.146	-6.16
720.479	-55.47
720.812	6.81
721.145	-94.4
721.478	-19.14
721.81	-24.33
722.143	-8.76
722.476	14.6
722.808	-0.97
723.141	-91.81
723.473	-34.71
723.806	-32.12
724.138	69.1
724.47	-47.69
724.803	-0.97
725.135	4.22
725.467	-6.16
725.799	43.15
726.131	12
726.463	-125.54
726.795	12
727.127	48.34
727.459	79.48
727.791	-13.95
728.122	-68.45
728.454	24.98
728.786	-32.12
729.117	-16.54
729.449	-24.33
729.78	-8.76
730.112	-3.57
730.443	9.41
730.774	37.96
731.106	9.41
731.437	35.36
731.768	-24.33
732.099	82.07
732.43	-8.76
732.761	-0.97
733.092	-122.95
733.423	-3.57
733.754	35.36
734.085	14.6
734.416	-16.54
734.746	-50.28
735.077	-78.83
735.407	-3.57
735.738	22.38
736.068	12
736.399	-42.5
736.729	22.38
737.06	6.81
737.39	-24.33
737.72	-34.71
738.05	-16.54
738.38	22.38
738.71	-16.54
739.041	-21.74
739.37	-0.97
739.7	-34.71
740.03	43.15
740.36	-76.24
740.69	50.93
741.02	4.22
741.349	22.38
741.679	12
742.008	-29.52
742.338	-42.5
742.667	-50.28
742.997	-89.21
743.326	-24.33
743.655	37.96
743.984	92.46
744.314	-47.69
744.643	-45.09
744.972	35.36
745.301	-133.33
745.63	-47.69
745.959	12
746.288	-47.69
746.616	-112.57
746.945	12
747.274	12
747.603	-13.95
747.931	-8.76
748.26	27.57
748.588	76.88
748.917	-3.57
749.245	17.19
749.573	-13.95
749.902	-58.07
750.23	43.15
750.558	1.62
750.886	4.22
751.214	87.26
751.542	-39.9
751.87	-37.31
752.198	-16.54
752.526	27.57
752.854	-154.09
753.182	48.34
753.509	-13.95
753.837	17.19
754.165	-68.45
754.492	-86.62
754.82	40.55
755.147	66.5
755.474	-26.93
755.802	43.15
756.129	30.17
756.456	-32.12
756.783	126.19
757.111	-65.85
757.438	-21.74
757.765	-11.35
758.092	40.55
758.418	53.53
758.745	-109.97
759.072	-42.5
759.399	-135.93
759.726	-265.69
760.052	-351.33
760.379	-455.14
760.705	-499.26
761.032	-421.4
761.358	-283.85
761.685	-229.35
762.011	-133.33
762.337	-167.07
762.663	12
762.99	-24.33
763.316	-58.07
763.642	35.36
763.968	45.74
764.294	-91.81
764.62	-135.93
764.946	-65.85
765.271	22.38
765.597	110.62
765.923	-47.69
766.248	-0.97
766.574	-3.57
766.9	40.55
767.225	-55.47
767.55	-13.95
767.876	4.22
768.201	-13.95
768.526	30.17
768.852	30.17
769.177	-55.47
769.502	-34.71
769.827	12
770.152	-73.64
770.477	-26.93
770.802	-97
771.127	37.96
771.451	-13.95
771.776	4.22
772.101	-13.95
772.425	-94.4
772.75	12
773.075	1.62
773.399	32.76
773.723	-52.88
774.048	56.12
774.372	-45.09
774.696	9.41
775.02	35.36
775.345	66.5
775.669	95.05
775.993	-58.07
776.317	61.31
776.641	-8.76
776.965	-81.43
777.288	-8.76
777.612	-60.66
777.936	14.6
778.26	53.53
778.583	32.76
778.907	17.19
779.23	56.12
779.554	-13.95
779.877	-8.76
780.2	-11.35
780.524	-91.81
780.847	1.62
781.17	32.76
781.493	-42.5
781.816	-84.02
782.139	-21.74
782.462	-45.09
782.785	-81.43
783.108	-0.97
783.431	-47.69
783.754	-11.35
