Data from Subt2_19-06-08-452.txt Node
Date: Wed Feb 22 19:06:08 CST 2023
User: Optics Lab
Spectrometer: FLMS14302
Trigger mode: 0
Integration Time (sec): 1.000000E-1
Scans to average: 1
Electric dark correction enabled: true
Nonlinearity correction enabled: false
Boxcar width: 0
XAxis mode: Wavelengths
Number of Pixels in Spectrum: 2048
>>>>>Begin Spectral Data<<<<<
338.578	-57.26
338.961	-57.26
339.343	-57.26
339.725	20.6
340.108	124.41
340.49	51.74
340.872	25.79
341.254	2.43
341.636	-26.11
342.018	25.79
342.4	-83.21
342.782	-26.11
343.164	36.17
343.546	15.41
343.928	-20.92
344.309	18
344.691	-70.23
345.073	67.31
345.455	5.03
345.836	-49.47
346.218	28.39
346.599	10.22
346.981	-46.88
347.362	18
347.744	-93.59
348.125	49.15
348.506	62.12
348.888	54.34
349.269	38.77
349.65	41.36
350.031	69.91
350.413	-54.66
350.794	-31.31
351.175	43.96
351.556	-2.76
351.937	23.19
352.318	-13.14
352.698	10.22
353.079	-20.92
353.46	-70.23
353.841	-10.54
354.222	38.77
354.602	-20.92
354.983	64.72
355.363	15.41
355.744	7.62
356.124	69.91
356.505	-20.92
356.885	41.36
357.266	41.36
357.646	121.81
358.026	-2.76
358.407	43.96
358.787	-2.76
359.167	2.43
359.547	-49.47
359.927	111.43
360.307	-15.73
360.687	-7.95
361.067	-41.69
361.447	56.93
361.827	54.34
362.207	23.19
362.587	-5.35
362.966	77.69
363.346	25.79
363.726	-20.92
364.105	36.17
364.485	33.58
364.865	-49.47
365.244	-15.73
365.624	-41.69
366.003	51.74
366.382	-62.45
366.762	129.6
367.141	-33.9
367.52	75.1
367.899	38.77
368.279	18
368.658	56.93
369.037	-13.14
369.416	41.36
369.795	-28.71
370.174	59.53
370.553	10.22
370.932	23.19
371.311	-36.5
371.689	98.46
372.068	33.58
372.447	95.86
372.825	10.22
373.204	-15.73
373.583	12.81
373.961	129.6
374.34	67.31
374.718	-65.04
375.097	-28.71
375.475	15.41
375.853	30.98
376.232	-26.11
376.61	49.15
376.988	67.31
377.366	-23.52
377.744	5.03
378.122	-26.11
378.5	-33.9
378.878	-18.33
379.256	-2.76
379.634	-41.69
380.012	-13.14
380.39	-33.9
380.768	46.55
381.145	-44.28
381.523	-10.54
381.901	7.62
382.278	-39.09
382.656	75.1
383.033	85.48
383.411	72.5
383.788	-49.47
384.166	-36.5
384.543	30.98
384.921	25.79
385.298	95.86
385.675	67.31
386.052	-46.88
386.429	-13.14
386.806	-13.14
387.184	-26.11
387.561	5.03
387.938	-26.11
388.314	-28.71
388.691	-75.42
389.068	33.58
389.445	18
389.822	15.41
390.198	-5.35
390.575	-49.47
390.952	62.12
391.328	-80.61
391.705	-15.73
392.081	38.77
392.458	-31.31
392.834	7.62
393.211	129.6
393.587	51.74
393.963	-49.47
394.34	23.19
394.716	-7.95
395.092	10.22
395.468	33.58
395.844	-36.5
396.22	93.27
396.596	-83.21
396.972	51.74
397.348	20.6
397.724	-39.09
398.1	-52.07
398.476	62.12
398.851	54.34
399.227	-70.23
399.603	20.6
399.978	56.93
400.354	20.6
400.729	5.03
401.105	46.55
401.48	46.55
401.856	7.62
402.231	23.19
402.606	-36.5
402.982	15.41
403.357	36.17
403.732	-23.52
404.107	62.12
404.482	38.77
404.857	10.22
405.232	59.53
405.607	95.86
405.982	36.17
406.357	-39.09
406.732	-7.95
407.107	-75.42
407.482	-15.73
407.856	18
408.231	-5.35
408.606	-67.64
408.98	-23.52
409.355	-28.71
409.729	33.58
410.104	-26.11
410.478	-10.54
410.852	23.19
411.227	-15.73
411.601	10.22
411.975	-36.5
412.35	69.91
412.724	-15.73
413.098	51.74
413.472	88.08
413.846	-70.23
414.22	90.67
414.594	64.72
414.968	69.91
415.342	20.6
415.715	25.79
416.089	-28.71
416.463	-93.59
416.837	-7.95
417.21	-2.76
417.584	56.93
417.957	20.6
418.331	-10.54
418.704	10.22
419.078	38.77
419.451	90.67
419.824	23.19
420.198	-15.73
420.571	93.27
420.944	23.19
421.317	-75.42
421.69	41.36
422.064	-5.35
422.437	5.03
422.81	30.98
423.182	95.86
423.555	56.93
423.928	30.98
424.301	23.19
424.674	75.1
425.047	-109.16
425.419	-28.71
425.792	33.58
426.164	-0.16
426.537	-15.73
426.91	-70.23
427.282	98.46
427.654	62.12
428.027	30.98
428.399	-10.54
428.771	82.89
429.144	18
429.516	-31.31
429.888	-106.57
430.26	124.41
430.632	-0.16
431.004	-39.09
431.376	46.55
431.748	90.67
432.12	-44.28
432.492	28.39
432.864	-26.11
433.236	-33.9
433.607	-65.04
433.979	-13.14
434.351	54.34
434.722	10.22
435.094	28.39
435.465	-39.09
435.837	194.48
436.208	171.12
436.58	272.34
436.951	59.53
437.322	98.46
437.693	69.91
438.065	10.22
438.436	15.41
438.807	33.58
439.178	106.24
439.549	-106.57
439.92	41.36
440.291	-39.09
440.662	-15.73
441.033	160.74
441.403	18
441.774	-2.76
442.145	30.98
442.516	33.58
442.886	98.46
443.257	90.67
443.627	-23.52
443.998	56.93
444.368	-67.64
444.739	18
445.109	28.39
445.479	12.81
445.85	85.48
446.22	-20.92
446.59	-2.76
446.96	64.72
447.33	62.12
447.7	114.03
448.07	30.98
448.44	7.62
448.81	72.5
449.18	64.72
449.55	23.19
449.92	-62.45
450.29	-85.81
450.659	-59.85
451.029	114.03
451.399	15.41
451.768	-7.95
452.138	-44.28
452.507	-20.92
452.877	7.62
453.246	114.03
453.615	-5.35
453.985	12.81
454.354	67.31
454.723	2.43
455.092	-2.76
455.462	-39.09
455.831	-0.16
456.2	103.65
456.569	62.12
456.938	80.29
457.307	5.03
457.675	43.96
458.044	38.77
458.413	43.96
458.782	111.43
459.15	69.91
459.519	82.89
459.888	18
460.256	62.12
460.625	7.62
460.993	64.72
461.362	20.6
461.73	-28.71
462.098	-39.09
462.467	85.48
462.835	36.17
463.203	95.86
463.571	25.79
463.939	-41.69
464.307	98.46
464.675	93.27
465.043	62.12
465.411	49.15
465.779	98.46
466.147	49.15
466.515	67.31
466.883	75.1
467.25	69.91
467.618	62.12
467.986	121.81
468.353	124.41
468.721	46.55
469.088	-49.47
469.456	49.15
469.823	95.86
470.19	90.67
470.558	88.08
470.925	114.03
471.292	49.15
471.659	72.5
472.027	28.39
472.394	46.55
472.761	106.24
473.128	85.48
473.495	93.27
473.862	-2.76
474.228	30.98
474.595	72.5
474.962	124.41
475.329	69.91
475.695	106.24
476.062	23.19
476.429	51.74
476.795	75.1
477.162	64.72
477.528	-52.07
477.895	-15.73
478.261	-18.33
478.627	46.55
478.994	-41.69
479.36	-23.52
479.726	28.39
480.092	119.22
480.458	72.5
480.824	56.93
481.19	-80.61
481.556	64.72
481.922	23.19
482.288	93.27
482.654	116.62
483.02	15.41
483.385	20.6
483.751	119.22
484.117	165.93
484.482	30.98
484.848	38.77
485.213	69.91
485.579	163.34
485.944	-52.07
486.31	69.91
486.675	75.1
487.04	168.53
487.406	75.1
487.771	145.17
488.136	106.24
488.501	30.98
488.866	30.98
489.231	165.93
489.596	36.17
489.961	108.84
490.326	5.03
490.691	69.91
491.056	46.55
491.42	-28.71
491.785	77.69
492.15	33.58
492.514	163.34
492.879	25.79
493.243	41.36
493.608	155.55
493.972	-20.92
494.337	132.2
494.701	12.81
495.065	36.17
495.43	75.1
495.794	-5.35
496.158	-13.14
496.522	72.5
496.886	2.43
497.25	46.55
497.614	23.19
497.978	106.24
498.342	33.58
498.706	-0.16
499.07	59.53
499.433	56.93
499.797	10.22
500.161	51.74
500.524	-39.09
500.888	-7.95
501.251	36.17
501.615	82.89
501.978	12.81
502.342	20.6
502.705	108.84
503.068	75.1
503.432	116.62
503.795	30.98
504.158	150.36
504.521	72.5
504.884	67.31
505.247	5.03
505.61	36.17
505.973	69.91
506.336	30.98
506.699	-26.11
507.062	75.1
507.424	134.79
507.787	75.1
508.15	93.27
508.512	67.31
508.875	62.12
509.238	49.15
509.6	124.41
509.962	38.77
510.325	23.19
510.687	75.1
511.049	-23.52
511.412	103.65
511.774	-33.9
512.136	82.89
512.498	20.6
512.86	59.53
513.222	-23.52
513.584	-2.76
513.946	-83.21
514.308	-7.95
514.67	7.62
515.032	64.72
515.393	54.34
515.755	77.69
516.117	5.03
516.478	7.62
516.84	114.03
517.201	98.46
517.563	137.39
517.924	119.22
518.286	95.86
518.647	-5.35
519.008	-13.14
519.37	-67.64
519.731	33.58
520.092	-20.92
520.453	90.67
520.814	80.29
521.175	114.03
521.536	5.03
521.897	108.84
522.258	12.81
522.619	49.15
522.979	20.6
523.34	90.67
523.701	15.41
524.061	5.03
524.422	54.34
524.783	95.86
525.143	-18.33
525.504	23.19
525.864	95.86
526.224	-15.73
526.585	-31.31
526.945	62.12
527.305	-26.11
527.665	108.84
528.025	25.79
528.385	46.55
528.746	43.96
529.106	111.43
529.465	5.03
529.825	-26.11
530.185	46.55
530.545	41.36
530.905	12.81
531.264	116.62
531.624	30.98
531.984	7.62
532.343	-39.09
532.703	10.22
533.062	5.03
533.422	111.43
533.781	28.39
534.141	46.55
534.5	-10.54
534.859	67.31
535.218	54.34
535.577	59.53
535.937	106.24
536.296	33.58
536.655	88.08
537.014	88.08
537.373	127
537.731	67.31
538.09	36.17
538.449	38.77
538.808	145.17
539.166	77.69
539.525	69.91
539.884	43.96
540.242	80.29
540.601	33.58
540.959	103.65
541.318	106.24
541.676	103.65
542.034	241.2
542.393	337.22
542.751	295.7
543.109	326.84
543.467	274.93
543.825	332.03
544.183	215.24
544.541	321.65
544.899	352.79
545.257	267.15
545.615	246.39
545.973	313.86
546.331	230.81
546.688	339.81
547.046	230.81
547.404	215.24
547.761	145.17
548.119	56.93
548.476	127
548.834	114.03
549.191	158.15
549.548	155.55
549.906	114.03
550.263	51.74
550.62	90.67
550.977	46.55
551.334	90.67
551.691	116.62
552.048	56.93
552.405	49.15
552.762	49.15
553.119	18
553.476	114.03
553.833	82.89
554.189	85.48
554.546	-23.52
554.903	80.29
555.259	54.34
555.616	67.31
555.972	5.03
556.329	33.58
556.685	23.19
557.042	72.5
557.398	51.74
557.754	121.81
558.11	5.03
558.467	67.31
558.823	38.77
559.179	51.74
559.535	-18.33
559.891	43.96
560.247	111.43
560.603	33.58
560.958	5.03
561.314	56.93
561.67	41.36
562.026	116.62
562.381	119.22
562.737	72.5
563.092	69.91
563.448	51.74
563.803	88.08
564.159	28.39
564.514	5.03
564.869	18
565.225	108.84
565.58	2.43
565.935	69.91
566.29	33.58
566.645	-2.76
567	75.1
567.355	25.79
567.71	33.58
568.065	15.41
568.42	38.77
568.775	88.08
569.13	103.65
569.484	-78.02
569.839	-114.35
570.193	28.39
570.548	90.67
570.903	2.43
571.257	-70.23
571.611	12.81
571.966	101.05
572.32	-7.95
572.674	20.6
573.029	-10.54
573.383	-36.5
573.737	-13.14
574.091	20.6
574.445	64.72
574.799	147.77
575.153	-0.16
575.507	33.58
575.861	20.6
576.215	51.74
576.568	72.5
576.922	-18.33
577.276	-20.92
577.629	38.77
577.983	10.22
578.336	5.03
578.69	-31.31
579.043	95.86
579.397	127
579.75	64.72
580.103	-23.52
580.456	77.69
580.81	30.98
581.163	-93.59
581.516	-0.16
581.869	33.58
582.222	72.5
582.575	-70.23
582.928	-28.71
583.281	38.77
583.633	-31.31
583.986	12.81
584.339	-20.92
584.691	-98.78
585.044	-59.85
585.397	46.55
585.749	-5.35
586.102	18
586.454	-67.64
586.806	5.03
587.159	-72.83
587.511	-249.31
587.863	-163.66
588.215	-124.73
588.567	-93.59
588.92	-187.02
589.272	-122.14
589.624	-41.69
589.975	-106.57
590.327	-176.64
590.679	-116.95
591.031	-98.78
591.383	-114.35
591.734	-200
592.086	-46.88
592.438	-168.85
592.789	-220.76
593.141	-288.23
593.492	-314.19
593.844	-360.9
594.195	-251.9
594.546	-231.14
594.898	-233.73
595.249	-174.04
595.6	-72.83
595.951	-184.42
596.302	-91
596.653	-202.59
597.004	-98.78
597.355	-179.23
597.706	-103.97
598.057	-202.59
598.408	-166.26
598.758	-296.02
599.109	-423.19
599.46	-314.19
599.81	-490.66
600.161	-451.73
600.511	-563.33
600.862	-436.16
601.212	-283.04
601.562	-329.76
601.913	-246.71
602.263	-251.9
602.613	-238.92
602.963	-132.52
603.313	-259.69
603.663	-275.26
604.013	-220.76
604.363	-236.33
604.713	-275.26
605.063	-257.09
605.413	-309
605.763	-329.76
606.112	-384.26
606.462	-324.57
606.812	-420.59
607.161	-508.83
607.511	-503.64
607.86	-586.69
608.21	-708.66
608.559	-768.35
608.908	-996.73
609.258	-1274.43
609.607	-1541.73
609.956	-2276.19
610.305	-3348.02
610.654	-5546.19
611.003	-9758.26
611.352	-14951.34
611.701	-18340.72
612.05	-17569.94
612.399	-15138.2
612.748	-12018.72
613.097	-9625.91
613.445	-8019.45
613.794	-6425.98
614.143	-5935.48
614.491	-5465.74
614.84	-5130.95
615.188	-4765.02
615.537	-4342
615.885	-3737.31
616.233	-3080.71
616.581	-2686.24
616.93	-2322.9
617.278	-1980.33
617.626	-1873.93
617.974	-1650.73
618.322	-1510.59
618.67	-1489.83
619.018	-1598.83
619.366	-1575.47
619.714	-1617
620.061	-1694.85
620.409	-1705.23
620.757	-1811.64
621.104	-1905.07
621.452	-1967.35
621.799	-1762.33
622.147	-1762.33
622.494	-1661.12
622.842	-1661.12
623.189	-1593.64
623.536	-1515.78
623.884	-1541.73
624.231	-1533.95
624.578	-1552.12
624.925	-1445.71
625.272	-1453.5
625.619	-1334.12
625.966	-1391.21
626.313	-1258.85
626.66	-1170.62
627.007	-1251.07
627.353	-1183.59
627.7	-1157.64
628.047	-1201.76
628.393	-1152.45
628.74	-1173.21
629.086	-1256.26
629.433	-1188.78
629.779	-1406.78
630.125	-1554.71
630.472	-1847.97
630.818	-2216.5
631.164	-2914.62
631.51	-3137.81
631.857	-3104.07
632.203	-2468.24
632.549	-1946.59
632.895	-1448.31
633.24	-1014.9
633.586	-809.88
633.932	-591.88
634.278	-358.31
634.624	-418
634.969	-363.5
635.315	-264.88
635.66	-373.88
636.006	-288.23
636.351	-366.09
636.697	-316.78
637.042	-106.57
637.388	-205.19
637.733	-119.54
638.078	-127.33
638.423	832.91
638.768	1699.72
639.113	1582.93
639.458	2031.91
639.803	2187.63
640.148	1442.79
640.493	936.72
640.838	505.91
641.183	267.15
641.527	-7.95
641.872	-88.4
642.217	-109.16
642.561	-116.95
642.906	-241.52
643.25	-150.69
643.595	-238.92
643.939	-238.92
644.284	-293.42
644.628	-122.14
644.972	-215.57
645.316	-303.81
645.66	-220.76
646.004	-272.66
646.348	-311.59
646.692	-238.92
647.036	-246.71
647.38	-272.66
647.724	-319.38
648.068	-194.81
648.412	-334.95
648.755	-296.02
649.099	-334.95
649.443	-270.07
649.786	-394.64
650.13	-495.85
650.473	-721.64
650.816	-1056.42
651.16	-1017.5
651.503	-924.07
651.846	-695.69
652.189	-607.45
652.533	-591.88
652.876	-542.57
653.219	-516.61
653.562	-485.47
653.905	-508.83
654.247	-498.45
654.59	-392.04
654.933	-332.35
655.276	-171.45
655.619	-168.85
655.961	-116.95
656.304	-124.73
656.646	-111.76
656.989	-145.5
657.331	-44.28
657.674	-298.61
658.016	-241.52
658.358	-238.92
658.701	-223.35
659.043	-246.71
659.385	-301.21
659.727	-236.33
660.069	-215.57
660.411	-202.59
660.753	-114.35
661.095	-46.88
661.437	-67.64
661.778	-212.97
662.12	-314.19
662.462	-469.9
662.804	-693.09
663.145	-651.57
663.487	-508.83
663.828	-475.09
664.17	-371.28
664.511	-467.31
664.852	-264.88
665.194	-251.9
665.535	-212.97
665.876	-212.97
666.217	-166.26
666.558	-288.23
666.899	-277.85
667.24	-176.64
667.581	-283.04
667.922	-236.33
668.263	-254.5
668.604	-285.64
668.944	-376.47
669.285	-257.09
669.626	-332.35
669.966	-223.35
670.307	-238.92
670.647	-163.66
670.988	-259.69
671.328	-148.09
671.669	-220.76
672.009	-215.57
672.349	-103.97
672.689	-59.85
673.029	-231.14
673.369	-137.71
673.71	-275.26
674.049	-150.69
674.389	-212.97
674.729	-293.42
675.069	-142.9
675.409	-127.33
675.749	-122.14
676.088	-145.5
676.428	-142.9
676.768	-187.02
677.107	-194.81
677.447	-212.97
677.786	-119.54
678.125	-52.07
678.465	-168.85
678.804	-52.07
679.143	-298.61
679.482	-197.4
679.821	-124.73
680.161	-225.95
680.5	-153.28
680.839	-135.11
681.177	-254.5
681.516	-114.35
681.855	-129.92
682.194	-119.54
682.533	-155.88
682.871	-197.4
683.21	-153.28
683.549	-161.07
683.887	-184.42
684.225	-88.4
684.564	-88.4
684.902	-124.73
685.241	-49.47
685.579	-36.5
685.917	-52.07
686.255	-122.14
686.593	-207.78
686.931	-192.21
687.269	-360.9
687.607	-501.04
687.945	-534.78
688.283	-438.76
688.621	-503.64
688.959	-482.88
689.296	-397.23
689.634	-215.57
689.972	-246.71
690.309	-137.71
690.647	-124.73
690.984	-194.81
691.322	-155.88
691.659	-114.35
691.996	-75.42
692.333	-83.21
692.671	-166.26
693.008	-148.09
693.345	-111.76
693.682	-376.47
694.019	-376.47
694.356	-329.76
694.693	-397.23
695.03	-301.21
695.366	-205.19
695.703	-163.66
696.04	-78.02
696.376	-236.33
696.713	-158.47
697.05	-46.88
697.386	-109.16
697.722	-33.9
698.059	-0.16
698.395	69.91
698.731	-78.02
699.068	-70.23
699.404	-7.95
699.74	-85.81
700.076	-33.9
700.412	-127.33
700.748	-83.21
701.084	20.6
701.42	-23.52
701.756	-75.42
702.091	-168.85
702.427	-78.02
702.763	-96.19
703.098	-91
703.434	-106.57
703.769	-106.57
704.105	-153.28
704.44	-215.57
704.776	-181.83
705.111	-231.14
705.446	-205.19
705.781	-384.26
706.117	-565.92
706.452	-623.02
706.787	-900.71
707.122	-1168.02
707.457	-1129.09
707.792	-1357.47
708.126	-1214.73
708.461	-1048.64
708.796	-1123.9
709.131	-1469.07
709.465	-1593.64
709.8	-1536.54
710.134	-1248.47
710.469	-973.38
710.803	-726.83
711.138	-636
711.472	-584.09
711.806	-724.23
712.14	-783.92
712.475	-1097.95
712.809	-1279.62
713.143	-1129.09
713.477	-955.21
713.811	-669.73
714.145	-623.02
714.479	-366.09
714.812	-280.45
715.146	-220.76
715.48	-91
715.814	-83.21
716.147	-91
716.481	28.39
716.814	-54.66
717.148	-36.5
717.481	25.79
717.814	25.79
718.148	-148.09
718.481	-75.42
718.814	-18.33
719.147	5.03
719.48	-103.97
719.813	-194.81
720.146	-80.61
720.479	-20.92
720.812	10.22
721.145	-103.97
721.478	25.79
721.81	-20.92
722.143	28.39
722.476	25.79
722.808	-28.71
723.141	-59.85
723.473	-59.85
723.806	54.34
724.138	25.79
724.47	-15.73
724.803	41.36
725.135	30.98
725.467	5.03
725.799	-10.54
726.131	-5.35
726.463	-88.4
726.795	25.79
727.127	38.77
727.459	77.69
727.791	33.58
728.122	103.65
728.454	10.22
728.786	-96.19
729.117	-18.33
729.449	-36.5
729.78	-18.33
730.112	-67.64
730.443	-59.85
730.774	-20.92
731.106	28.39
731.437	56.93
731.768	-72.83
732.099	-72.83
732.43	49.15
732.761	-28.71
733.092	-96.19
733.423	12.81
733.754	-70.23
734.085	-23.52
734.416	36.17
734.746	2.43
735.077	-88.4
735.407	-10.54
735.738	-28.71
736.068	75.1
736.399	-31.31
736.729	-49.47
737.06	12.81
737.39	5.03
737.72	-0.16
738.05	30.98
738.38	-31.31
738.71	-31.31
739.041	-13.14
739.37	25.79
739.7	-10.54
740.03	41.36
740.36	-10.54
740.69	-28.71
741.02	-23.52
741.349	-13.14
741.679	51.74
742.008	38.77
742.338	-10.54
742.667	-54.66
742.997	-137.71
743.326	-72.83
743.655	2.43
743.984	59.53
744.314	-127.33
744.643	-101.38
744.972	-5.35
745.301	-98.78
745.63	-7.95
745.959	28.39
746.288	-62.45
746.616	-49.47
746.945	-49.47
747.274	20.6
747.603	-13.14
747.931	30.98
748.26	-10.54
748.588	5.03
748.917	51.74
749.245	7.62
749.573	-15.73
749.902	-5.35
750.23	18
750.558	54.34
750.886	-39.09
751.214	-33.9
751.542	41.36
751.87	-13.14
752.198	-36.5
752.526	15.41
752.854	-116.95
753.182	-26.11
753.509	-39.09
753.837	7.62
754.165	54.34
754.492	-85.81
754.82	-28.71
755.147	10.22
755.474	-96.19
755.802	10.22
756.129	64.72
756.456	93.27
756.783	-23.52
757.111	-80.61
757.438	28.39
757.765	-5.35
758.092	30.98
758.418	38.77
758.745	-93.59
759.072	23.19
759.399	-103.97
759.726	-215.57
760.052	-366.09
760.379	-459.52
760.705	-633.4
761.032	-449.14
761.358	-368.69
761.685	-246.71
762.011	-184.42
762.337	-135.11
762.663	-106.57
762.99	62.12
763.316	20.6
763.642	-41.69
763.968	41.36
764.294	-54.66
764.62	-46.88
764.946	-5.35
765.271	119.22
765.597	152.96
765.923	-39.09
766.248	-0.16
766.574	20.6
766.9	56.93
767.225	43.96
767.55	-20.92
767.876	-15.73
768.201	-23.52
768.526	67.31
768.852	56.93
769.177	-80.61
769.502	-13.14
769.827	-28.71
770.152	-83.21
770.477	-148.09
770.802	-62.45
771.127	33.58
771.451	-5.35
771.776	-2.76
772.101	-49.47
772.425	-83.21
772.75	82.89
773.075	-10.54
773.399	38.77
773.723	15.41
774.048	-0.16
774.372	46.55
774.696	-33.9
775.02	2.43
775.345	-59.85
775.669	12.81
775.993	-54.66
776.317	12.81
776.641	20.6
776.965	62.12
777.288	-10.54
777.612	-148.09
777.936	46.55
778.26	30.98
778.583	-15.73
778.907	25.79
779.23	28.39
779.554	-54.66
779.877	25.79
780.2	15.41
780.524	-46.88
780.847	12.81
781.17	-33.9
781.493	-93.59
781.816	-57.26
782.139	20.6
782.462	-46.88
