Data from Subt2_19-07-02-298.txt Node
Date: Wed Feb 22 19:07:02 CST 2023
User: Optics Lab
Spectrometer: FLMS14302
Trigger mode: 0
Integration Time (sec): 1.000000E-1
Scans to average: 1
Electric dark correction enabled: true
Nonlinearity correction enabled: false
Boxcar width: 0
XAxis mode: Wavelengths
Number of Pixels in Spectrum: 2048
>>>>>Begin Spectral Data<<<<<
338.578	-12
338.961	-12
339.343	-12
339.725	45.09
340.108	78.83
340.49	-35.36
340.872	-12
341.254	-32.76
341.636	-14.6
342.018	42.5
342.4	-50.93
342.782	47.69
343.164	63.26
343.546	11.35
343.928	29.52
344.309	-22.38
344.691	-45.74
345.073	34.71
345.455	29.52
345.836	-61.31
346.218	16.54
346.599	-71.69
346.981	13.95
347.362	34.71
347.744	-95.05
348.125	68.45
348.506	34.71
348.888	52.88
349.269	47.69
349.65	29.52
350.031	120.35
350.413	-22.38
350.794	19.14
351.175	47.69
351.556	-87.26
351.937	6.16
352.318	-63.91
352.698	29.52
353.079	-9.41
353.46	-50.93
353.841	-61.31
354.222	-71.69
354.602	-43.15
354.983	97
355.363	-69.1
355.744	-22.38
356.124	117.76
356.505	-22.38
356.885	11.35
357.266	-1.62
357.646	78.83
358.026	0.97
358.407	52.88
358.787	-48.34
359.167	-9.41
359.547	-76.88
359.927	102.19
360.307	-22.38
360.687	3.57
361.067	29.52
361.447	84.02
361.827	-6.81
362.207	-63.91
362.587	-14.6
362.966	3.57
363.346	-79.48
363.726	13.95
364.105	42.5
364.485	37.31
364.865	-9.41
365.244	-12
365.624	6.16
366.003	29.52
366.382	-4.22
366.762	86.62
367.141	-58.72
367.52	-4.22
367.899	32.12
368.279	99.59
368.658	8.76
369.037	-17.19
369.416	47.69
369.795	19.14
370.174	84.02
370.553	52.88
370.932	63.26
371.311	-82.07
371.689	32.12
372.068	13.95
372.447	76.24
372.825	3.57
373.204	-43.15
373.583	-12
373.961	68.45
374.34	45.09
374.718	-79.48
375.097	81.43
375.475	52.88
375.853	37.31
376.232	29.52
376.61	50.28
376.988	45.09
377.366	-22.38
377.744	-14.6
378.122	6.16
378.5	-89.86
378.878	-19.79
379.256	-12
379.634	-24.98
380.012	-4.22
380.39	-17.19
380.768	-110.62
381.145	-32.76
381.523	-92.46
381.901	177.45
382.278	-22.38
382.656	68.45
383.033	-19.79
383.411	97
383.788	-43.15
384.166	-58.72
384.543	21.74
384.921	107.38
385.298	76.24
385.675	21.74
386.052	-48.34
386.429	-6.81
386.806	58.07
387.184	11.35
387.561	122.95
387.938	3.57
388.314	-9.41
388.691	-14.6
389.068	13.95
389.445	-6.81
389.822	29.52
390.198	-22.38
390.575	11.35
390.952	-40.55
391.328	-45.74
391.705	-24.98
392.081	86.62
392.458	-95.05
392.834	13.95
393.211	58.07
393.587	0.97
393.963	-118.41
394.34	-9.41
394.716	6.16
395.092	21.74
395.468	-22.38
395.844	42.5
396.22	102.19
396.596	-24.98
396.972	24.33
397.348	-19.79
397.724	-12
398.1	13.95
398.476	32.12
398.851	107.38
399.227	-12
399.603	29.52
399.978	94.4
400.354	24.33
400.729	-12
401.105	29.52
401.48	-1.62
401.856	-1.62
402.231	65.85
402.606	-40.55
402.982	32.12
403.357	-61.31
403.732	19.14
404.107	115.16
404.482	97
404.857	60.66
405.232	-12
405.607	39.9
405.982	19.14
406.357	-9.41
406.732	16.54
407.107	-45.74
407.482	-92.46
407.856	-37.96
408.231	60.66
408.606	37.31
408.98	-50.93
409.355	76.24
409.729	32.12
410.104	11.35
410.478	-45.74
410.852	-6.81
411.227	-63.91
411.601	29.52
411.975	13.95
412.35	78.83
412.724	-53.53
413.098	52.88
413.472	128.14
413.846	6.16
414.22	32.12
414.594	-12
414.968	-27.57
415.342	13.95
415.715	26.93
416.089	8.76
416.463	-100.24
416.837	-102.84
417.21	-58.72
417.584	0.97
417.957	63.26
418.331	37.31
418.704	112.57
419.078	71.04
419.451	50.28
419.824	34.71
420.198	-82.07
420.571	-37.96
420.944	-14.6
421.317	-27.57
421.69	-22.38
422.064	65.85
422.437	47.69
422.81	-14.6
423.182	29.52
423.555	55.47
423.928	-6.81
424.301	-24.98
424.674	73.64
425.047	-50.93
425.419	32.12
425.792	29.52
426.164	-56.12
426.537	13.95
426.91	3.57
427.282	60.66
427.654	19.14
428.027	58.07
428.399	19.14
428.771	-9.41
429.144	24.33
429.516	76.24
429.888	-50.93
430.26	45.09
430.632	-58.72
431.004	-17.19
431.376	11.35
431.748	65.85
432.12	-1.62
432.492	-17.19
432.864	65.85
433.236	-22.38
433.607	-82.07
433.979	-22.38
434.351	42.5
434.722	60.66
435.094	73.64
435.465	19.14
435.837	130.74
436.208	226.76
436.58	244.93
436.951	169.66
437.322	60.66
437.693	21.74
438.065	-45.74
438.436	6.16
438.807	0.97
439.178	50.28
439.549	-126.19
439.92	63.26
440.291	16.54
440.662	50.28
441.033	94.4
441.403	115.16
441.774	13.95
442.145	11.35
442.516	55.47
442.886	133.33
443.257	65.85
443.627	-6.81
443.998	24.33
444.368	-6.81
444.739	60.66
445.109	39.9
445.479	21.74
445.85	32.12
446.22	-79.48
446.59	71.04
446.96	120.35
447.33	60.66
447.7	81.43
448.07	37.31
448.44	45.09
448.81	125.54
449.18	78.83
449.55	94.4
449.92	26.93
450.29	16.54
450.659	13.95
451.029	99.59
451.399	102.19
451.768	42.5
452.138	146.31
452.507	78.83
452.877	42.5
453.246	151.5
453.615	107.38
453.985	107.38
454.354	172.26
454.723	143.71
455.092	84.02
455.462	120.35
455.831	104.78
456.2	224.16
456.569	193.02
456.938	185.24
457.307	141.12
457.675	247.52
458.044	208.59
458.413	141.12
458.782	143.71
459.15	213.78
459.519	148.9
459.888	65.85
460.256	135.93
460.625	185.24
460.993	172.26
461.362	94.4
461.73	117.76
462.098	143.71
462.467	151.5
462.835	78.83
463.203	180.04
463.571	99.59
463.939	122.95
464.307	73.64
464.675	130.74
465.043	143.71
465.411	120.35
465.779	97
466.147	76.24
466.515	172.26
466.883	120.35
467.25	177.45
467.618	133.33
467.986	109.97
468.353	84.02
468.721	99.59
469.088	71.04
469.456	130.74
469.823	58.07
470.19	76.24
470.558	135.93
470.925	112.57
471.292	161.88
471.659	161.88
472.027	180.04
472.394	133.33
472.761	172.26
473.128	125.54
473.495	156.69
473.862	65.85
474.228	99.59
474.595	109.97
474.962	159.28
475.329	102.19
475.695	159.28
476.062	26.93
476.429	78.83
476.795	180.04
477.162	138.52
477.528	32.12
477.895	120.35
478.261	89.21
478.627	135.93
478.994	117.76
479.36	8.76
479.726	32.12
480.092	104.78
480.458	45.09
480.824	120.35
481.19	34.71
481.556	133.33
481.922	117.76
482.288	115.16
482.654	135.93
483.02	99.59
483.385	65.85
483.751	117.76
484.117	185.24
484.482	-17.19
484.848	78.83
485.213	29.52
485.579	73.64
485.944	-17.19
486.31	133.33
486.675	37.31
487.04	211.19
487.406	138.52
487.771	151.5
488.136	143.71
488.501	84.02
488.866	125.54
489.231	164.47
489.596	94.4
489.961	231.95
490.326	81.43
490.691	50.28
491.056	159.28
491.42	102.19
491.785	148.9
492.15	81.43
492.514	151.5
492.879	86.62
493.243	99.59
493.608	112.57
493.972	86.62
494.337	161.88
494.701	-40.55
495.065	78.83
495.43	99.59
495.794	47.69
496.158	94.4
496.522	29.52
496.886	73.64
497.25	89.21
497.614	37.31
497.978	138.52
498.342	37.31
498.706	86.62
499.07	161.88
499.433	-9.41
499.797	84.02
500.161	6.16
500.524	102.19
500.888	135.93
501.251	60.66
501.615	206
501.978	109.97
502.342	6.16
502.705	148.9
503.068	128.14
503.432	89.21
503.795	42.5
504.158	177.45
504.521	65.85
504.884	146.31
505.247	21.74
505.61	91.81
505.973	148.9
506.336	68.45
506.699	76.24
507.062	117.76
507.424	198.21
507.787	39.9
508.15	99.59
508.512	164.47
508.875	109.97
509.238	55.47
509.6	141.12
509.962	167.07
510.325	71.04
510.687	104.78
511.049	34.71
511.412	182.64
511.774	71.04
512.136	133.33
512.498	122.95
512.86	172.26
513.222	37.31
513.584	172.26
513.946	34.71
514.308	94.4
514.67	125.54
515.032	146.31
515.393	208.59
515.755	177.45
516.117	-1.62
516.478	133.33
516.84	200.81
517.201	71.04
517.563	174.85
517.924	156.69
518.286	89.21
518.647	94.4
519.008	128.14
519.37	159.28
519.731	117.76
520.092	42.5
520.453	138.52
520.814	45.09
521.175	154.09
521.536	34.71
521.897	237.14
522.258	146.31
522.619	63.26
522.979	128.14
523.34	130.74
523.701	109.97
524.061	102.19
524.422	174.85
524.783	154.09
525.143	115.16
525.504	94.4
525.864	143.71
526.224	55.47
526.585	55.47
526.945	154.09
527.305	60.66
527.665	112.57
528.025	133.33
528.385	115.16
528.746	146.31
529.106	242.33
529.465	141.12
529.825	130.74
530.185	97
530.545	86.62
530.905	177.45
531.264	187.83
531.624	104.78
531.984	120.35
532.343	24.33
532.703	164.47
533.062	8.76
533.422	122.95
533.781	109.97
534.141	159.28
534.5	3.57
534.859	260.5
535.218	58.07
535.577	130.74
535.937	78.83
536.296	81.43
536.655	91.81
537.014	130.74
537.373	198.21
537.731	187.83
538.09	99.59
538.449	128.14
538.808	156.69
539.166	34.71
539.525	138.52
539.884	156.69
540.242	169.66
540.601	122.95
540.959	128.14
541.318	167.07
541.676	91.81
542.034	244.93
542.393	322.78
542.751	312.4
543.109	237.14
543.467	257.9
543.825	312.4
544.183	315
544.541	315
544.899	317.59
545.257	278.66
545.615	231.95
545.973	244.93
546.331	263.09
546.688	348.74
547.046	283.85
547.404	218.97
547.761	161.88
548.119	135.93
548.476	161.88
548.834	263.09
549.191	268.28
549.548	73.64
549.906	164.47
550.263	6.16
550.62	122.95
550.977	138.52
551.334	169.66
551.691	89.21
552.048	89.21
552.405	99.59
552.762	198.21
553.119	115.16
553.476	208.59
553.833	161.88
554.189	156.69
554.546	143.71
554.903	81.43
555.259	128.14
555.616	109.97
555.972	86.62
556.329	21.74
556.685	34.71
557.042	112.57
557.398	125.54
557.754	52.88
558.11	29.52
558.467	122.95
558.823	58.07
559.179	97
559.535	81.43
559.891	81.43
560.247	154.09
560.603	63.26
560.958	42.5
561.314	125.54
561.67	135.93
562.026	99.59
562.381	143.71
562.737	122.95
563.092	60.66
563.448	97
563.803	73.64
564.159	81.43
564.514	164.47
564.869	141.12
565.225	203.4
565.58	-1.62
565.935	94.4
566.29	97
566.645	94.4
567	125.54
567.355	104.78
567.71	76.24
568.065	68.45
568.42	13.95
568.775	206
569.13	190.43
569.484	58.07
569.839	11.35
570.193	3.57
570.548	107.38
570.903	-12
571.257	63.26
571.611	97
571.966	99.59
572.32	84.02
572.674	0.97
573.029	50.28
573.383	42.5
573.737	32.12
574.091	76.24
574.445	133.33
574.799	141.12
575.153	65.85
575.507	3.57
575.861	115.16
576.215	138.52
576.568	94.4
576.922	60.66
577.276	24.33
577.629	60.66
577.983	84.02
578.336	3.57
578.69	-12
579.043	174.85
579.397	151.5
579.75	-53.53
580.103	26.93
580.456	24.33
580.81	81.43
581.163	-35.36
581.516	89.21
581.869	109.97
582.222	91.81
582.575	-9.41
582.928	52.88
583.281	68.45
583.633	73.64
583.986	-9.41
584.339	29.52
584.691	-63.91
585.044	-50.93
585.397	-17.19
585.749	29.52
586.102	21.74
586.454	32.12
586.806	50.28
587.159	-89.86
587.511	-196.27
587.863	-157.34
588.215	-131.38
588.567	-87.26
588.92	-232.6
589.272	-157.34
589.624	-79.48
589.975	-58.72
590.327	-154.74
590.679	-133.98
591.031	-58.72
591.383	-56.12
591.734	-108.03
592.086	-37.96
592.438	-152.15
592.789	-97.65
593.141	-310.46
593.492	-336.41
593.844	-305.27
594.195	-307.86
594.546	-159.93
594.898	-276.72
595.249	-97.65
595.6	-50.93
595.951	-165.12
596.302	-113.22
596.653	-152.15
597.004	-118.41
597.355	-121
597.706	-157.34
598.057	-131.38
598.408	-178.1
598.758	-232.6
599.109	-289.69
599.46	-362.36
599.81	-346.79
600.161	-416.86
600.511	-471.36
600.862	-364.96
601.212	-339
601.562	-398.69
601.913	-271.53
602.263	-201.46
602.613	-235.19
602.963	-172.91
603.313	-123.6
603.663	-162.53
604.013	-102.84
604.363	-204.05
604.713	-196.27
605.063	-172.91
605.413	-206.65
605.763	-250.77
606.112	-331.22
606.462	-313.05
606.812	-307.86
607.161	-339
607.511	-440.22
607.86	-541.43
608.21	-621.88
608.559	-728.29
608.908	-1021.55
609.258	-1291.46
609.607	-1561.36
609.956	-2290.62
610.305	-3359.86
610.654	-5511.32
611.003	-9829.8
611.352	-15041.04
611.701	-18495.3
612.05	-17675.21
612.399	-15323.92
612.748	-12121.39
613.097	-9687.06
613.445	-7948.25
613.794	-6437.82
614.143	-5944.72
614.491	-5469.79
614.84	-5046.77
615.188	-4756.1
615.537	-4275.98
615.885	-3738.77
616.233	-3126.29
616.581	-2653.96
616.93	-2293.22
617.278	-1932.48
617.626	-1828.67
617.974	-1584.72
618.322	-1410.84
618.67	-1491.29
619.018	-1532.81
619.366	-1621.05
619.714	-1532.81
620.061	-1693.72
620.409	-1732.65
620.757	-1820.89
621.104	-1914.31
621.452	-1789.74
621.799	-1675.55
622.147	-1766.39
622.494	-1587.31
622.842	-1659.98
623.189	-1540.6
623.536	-1550.98
623.884	-1535.41
624.231	-1454.96
624.578	-1491.29
624.925	-1457.55
625.272	-1421.22
625.619	-1351.15
625.966	-1366.72
626.313	-1182.46
626.66	-1109.79
627.007	-1169.48
627.353	-1135.74
627.7	-1125.36
628.047	-1205.81
628.393	-1185.05
628.74	-1107.19
629.086	-1203.22
629.433	-1218.79
629.779	-1325.19
630.125	-1525.03
630.472	-1774.17
630.818	-2171.24
631.164	-2833.03
631.51	-3118.51
631.857	-3022.48
632.203	-2415.2
632.549	-1836.46
632.895	-1294.05
633.24	-938.5
633.586	-826.91
633.932	-471.36
634.278	-406.48
634.624	-300.07
634.969	-351.98
635.315	-227.41
635.66	-294.88
636.006	-198.86
636.351	-178.1
636.697	-172.91
637.042	-74.29
637.388	-149.55
637.733	68.45
638.078	229.35
638.423	3899.02
638.768	7148.26
639.113	7641.36
639.458	9707.17
639.803	14381.2
640.148	9572.22
640.493	5502.88
640.838	3683.62
641.183	2360.05
641.527	1218.14
641.872	522.62
642.217	45.09
642.561	146.31
642.906	-131.38
643.25	-133.98
643.595	-172.91
643.939	-131.38
644.284	-240.38
644.628	-76.88
644.972	-209.24
645.316	-245.57
645.66	-250.77
646.004	-284.5
646.348	-222.22
646.692	-222.22
647.036	-206.65
647.38	-188.48
647.724	-305.27
648.068	-159.93
648.412	-320.84
648.755	-281.91
649.099	-385.72
649.443	-227.41
649.786	-377.93
650.13	-437.62
650.473	-715.31
650.816	-967.05
651.16	-967.05
651.503	-933.31
651.846	-743.86
652.189	-546.62
652.533	-435.03
652.876	-492.12
653.219	-448
653.562	-432.43
653.905	-437.62
654.247	-484.34
654.59	-279.31
654.933	-287.1
655.276	-253.36
655.619	-217.03
655.961	-131.38
656.304	-146.96
656.646	-110.62
656.989	-180.69
657.331	-43.15
657.674	-191.07
658.016	-242.98
658.358	-209.24
658.701	-206.65
659.043	-232.6
659.385	-268.93
659.727	-133.98
660.069	-242.98
660.411	-178.1
660.753	-97.65
661.095	-167.72
661.437	-100.24
661.778	-242.98
662.12	-276.72
662.462	-435.03
662.804	-624.48
663.145	-658.22
663.487	-466.17
663.828	-473.96
664.17	-422.05
664.511	-432.43
664.852	-305.27
665.194	-339
665.535	-139.17
665.876	-149.55
666.217	-144.36
666.558	-201.46
666.899	-287.1
667.24	-253.36
667.581	-222.22
667.922	-141.76
668.263	-206.65
668.604	-287.1
668.944	-320.84
669.285	-211.84
669.626	-284.5
669.966	-157.34
670.307	-204.05
670.647	-152.15
670.988	-201.46
671.328	-113.22
671.669	-172.91
672.009	-235.19
672.349	-152.15
672.689	-102.84
673.029	-198.86
673.369	-24.98
673.71	-318.24
674.049	-45.74
674.389	-183.29
674.729	-185.88
675.069	-118.41
675.409	-50.93
675.749	-71.69
676.088	-146.96
676.428	-136.57
676.768	-165.12
677.107	-250.77
677.447	-235.19
677.786	3.57
678.125	-115.81
678.465	-193.67
678.804	-136.57
679.143	-227.41
679.482	-209.24
679.821	-95.05
680.161	-162.53
680.5	-185.88
680.839	-193.67
681.177	-193.67
681.516	-230
681.855	-172.91
682.194	-115.81
682.533	-170.31
682.871	-193.67
683.21	-180.69
683.549	-146.96
683.887	-146.96
684.225	-66.5
684.564	-35.36
684.902	-92.46
685.241	-69.1
685.579	-35.36
685.917	-61.31
686.255	-71.69
686.593	-209.24
686.931	-222.22
687.269	-341.6
687.607	-505.1
687.945	-515.48
688.283	-486.93
688.621	-564.79
688.959	-380.53
689.296	-341.6
689.634	-253.36
689.972	-167.72
690.309	-144.36
690.647	-115.81
690.984	-115.81
691.322	-118.41
691.659	-56.12
691.996	-22.38
692.333	-110.62
692.671	-136.57
693.008	-149.55
693.345	-66.5
693.682	-344.19
694.019	-385.72
694.356	-362.36
694.693	-336.41
695.03	-346.79
695.366	-333.81
695.703	-97.65
696.04	-48.34
696.376	-144.36
696.713	-170.31
697.05	-45.74
697.386	-144.36
697.722	-4.22
698.059	24.33
698.395	-9.41
698.731	-102.84
699.068	3.57
699.404	-35.36
699.74	-32.76
700.076	13.95
700.412	-22.38
700.748	-43.15
701.084	-9.41
701.42	-74.29
701.756	-50.93
702.091	-141.76
702.427	-17.19
702.763	-89.86
703.098	-108.03
703.434	-12
703.769	-84.67
704.105	-170.31
704.44	-157.34
704.776	-170.31
705.111	-242.98
705.446	-323.43
705.781	-346.79
706.117	-518.07
706.452	-606.31
706.787	-839.88
707.122	-1211
707.457	-1244.74
707.792	-1288.86
708.126	-1156.5
708.461	-993
708.796	-1213.6
709.131	-1423.81
709.465	-1636.62
709.8	-1571.74
710.134	-1211
710.469	-1055.29
710.803	-730.88
711.138	-637.46
711.472	-523.27
711.806	-699.74
712.14	-816.53
712.475	-1125.36
712.809	-1255.12
713.143	-1135.74
713.477	-1005.98
713.811	-759.43
714.145	-704.93
714.479	-375.34
714.812	-217.03
715.146	-240.38
715.48	-110.62
715.814	-89.86
716.147	-95.05
716.481	-63.91
716.814	-102.84
717.148	-9.41
717.481	26.93
717.814	11.35
718.148	-97.65
718.481	8.76
718.814	3.57
719.147	26.93
719.48	-105.43
719.813	-149.55
720.146	-61.31
720.479	-27.57
720.812	32.12
721.145	-22.38
721.478	-9.41
721.81	-43.15
722.143	-12
722.476	24.33
722.808	-50.93
723.141	-27.57
723.473	-66.5
723.806	6.16
724.138	65.85
724.47	-141.76
724.803	24.33
725.135	-4.22
725.467	-71.69
725.799	45.09
726.131	-58.72
726.463	-108.03
726.795	-9.41
727.127	60.66
727.459	52.88
727.791	-24.98
728.122	42.5
728.454	29.52
728.786	19.14
729.117	-17.19
729.449	-76.88
729.78	-22.38
730.112	3.57
730.443	-40.55
730.774	-17.19
731.106	-40.55
731.437	58.07
731.768	-69.1
732.099	-43.15
732.43	76.24
732.761	-84.67
733.092	-45.74
733.423	24.33
733.754	-61.31
734.085	-17.19
734.416	21.74
734.746	-71.69
735.077	21.74
735.407	-53.53
735.738	45.09
736.068	3.57
736.399	-17.19
736.729	-74.29
737.06	99.59
737.39	-108.03
737.72	0.97
738.05	21.74
738.38	-37.96
738.71	63.26
739.041	16.54
739.37	71.04
739.7	-48.34
740.03	11.35
740.36	8.76
740.69	-40.55
741.02	-1.62
741.349	3.57
741.679	60.66
742.008	-24.98
742.338	19.14
742.667	-58.72
742.997	-58.72
743.326	-22.38
743.655	58.07
743.984	21.74
744.314	-37.96
744.643	-6.81
744.972	13.95
745.301	-154.74
745.63	-6.81
745.959	-4.22
746.288	-71.69
746.616	11.35
746.945	29.52
747.274	42.5
747.603	-50.93
747.931	-17.19
748.26	-37.96
748.588	0.97
748.917	143.71
749.245	-12
749.573	-9.41
749.902	47.69
750.23	-37.96
750.558	-19.79
750.886	-43.15
751.214	19.14
751.542	11.35
751.87	60.66
752.198	71.04
752.526	-53.53
752.854	-14.6
753.182	3.57
753.509	-14.6
753.837	-1.62
754.165	50.28
754.492	-76.88
754.82	16.54
755.147	37.31
755.474	60.66
755.802	6.16
756.129	58.07
756.456	21.74
756.783	-4.22
757.111	13.95
757.438	-35.36
757.765	26.93
758.092	86.62
758.418	-30.17
758.745	-139.17
759.072	-71.69
759.399	-113.22
759.726	-235.19
760.052	-406.48
760.379	-518.07
760.705	-520.67
761.032	-427.24
761.358	-305.27
761.685	-211.84
762.011	-141.76
762.337	-141.76
762.663	-63.91
762.99	-45.74
763.316	26.93
763.642	13.95
763.968	16.54
764.294	-74.29
764.62	-92.46
764.946	-35.36
765.271	84.02
765.597	73.64
765.923	-118.41
766.248	24.33
766.574	-56.12
766.9	-12
767.225	91.81
767.55	68.45
767.876	52.88
768.201	-61.31
768.526	52.88
768.852	112.57
769.177	-56.12
769.502	-115.81
769.827	-95.05
770.152	-110.62
770.477	-17.19
770.802	-113.22
771.127	130.74
771.451	60.66
771.776	-58.72
772.101	16.54
772.425	-53.53
772.75	78.83
773.075	6.16
773.399	34.71
773.723	-19.79
774.048	-63.91
774.372	-19.79
774.696	-76.88
775.02	3.57
775.345	71.04
775.669	21.74
775.993	-17.19
776.317	42.5
776.641	-1.62
776.965	58.07
777.288	-1.62
777.612	-128.79
777.936	55.47
778.26	-12
778.583	-14.6
778.907	29.52
779.23	-56.12
779.554	-30.17
779.877	-17.19
780.2	-35.36
780.524	-159.93
780.847	11.35
781.17	45.09
781.493	-74.29
