Data from Subt2_19-08-31-599.txt Node
Date: Wed Feb 22 19:08:31 CST 2023
User: Optics Lab
Spectrometer: FLMS14302
Trigger mode: 0
Integration Time (sec): 1.000000E-1
Scans to average: 1
Electric dark correction enabled: true
Nonlinearity correction enabled: false
Boxcar width: 0
XAxis mode: Wavelengths
Number of Pixels in Spectrum: 2048
>>>>>Begin Spectral Data<<<<<
338.578	57.58
338.961	57.58
339.343	57.58
339.725	18.65
340.108	60.18
340.49	-25.47
340.872	-12.49
341.254	49.8
341.636	-22.87
342.018	-38.44
342.4	-79.97
342.782	96.51
343.164	80.94
343.546	-33.25
343.928	26.44
344.309	-9.89
344.691	-56.61
345.073	75.75
345.455	49.8
345.836	-61.8
346.218	-38.44
346.599	-33.25
346.981	-4.7
347.362	80.94
347.744	29.03
348.125	67.96
348.506	8.27
348.888	18.65
349.269	60.18
349.65	91.32
350.031	114.68
350.413	-48.82
350.794	117.27
351.175	34.22
351.556	-17.68
351.937	23.84
352.318	-30.66
352.698	-66.99
353.079	0.49
353.46	-46.23
353.841	-72.18
354.222	-22.87
354.602	-74.78
354.983	39.42
355.363	-22.87
355.744	34.22
356.124	18.65
356.505	13.46
356.885	-2.11
357.266	-54.01
357.646	83.53
358.026	29.03
358.407	99.11
358.787	34.22
359.167	3.08
359.547	0.49
359.927	143.22
360.307	-54.01
360.687	-9.89
361.067	21.25
361.447	5.68
361.827	18.65
362.207	18.65
362.587	-15.08
362.966	67.96
363.346	21.25
363.726	70.56
364.105	44.61
364.485	-22.87
364.865	-17.68
365.244	65.37
365.624	-22.87
366.003	62.77
366.382	70.56
366.762	135.44
367.141	-20.28
367.52	23.84
367.899	-17.68
368.279	-28.06
368.658	-17.68
369.037	-22.87
369.416	0.49
369.795	5.68
370.174	5.68
370.553	-35.85
370.932	34.22
371.311	-20.28
371.689	88.72
372.068	-35.85
372.447	5.68
372.825	21.25
373.204	34.22
373.583	60.18
373.961	60.18
374.34	67.96
374.718	-28.06
375.097	-46.23
375.475	18.65
375.853	44.61
376.232	-4.7
376.61	31.63
376.988	70.56
377.366	-7.3
377.744	52.39
378.122	130.25
378.5	-77.37
378.878	-33.25
379.256	36.82
379.634	86.13
380.012	65.37
380.39	-35.85
380.768	-17.68
381.145	-22.87
381.523	0.49
381.901	73.15
382.278	-4.7
382.656	62.77
383.033	75.75
383.411	125.06
383.788	-66.99
384.166	-33.25
384.543	96.51
384.921	73.15
385.298	44.61
385.675	0.49
386.052	-59.2
386.429	67.96
386.806	62.77
387.184	47.2
387.561	80.94
387.938	10.87
388.314	44.61
388.691	-59.2
389.068	39.42
389.445	13.46
389.822	-12.49
390.198	57.58
390.575	-41.04
390.952	96.51
391.328	-56.61
391.705	39.42
392.081	23.84
392.458	-17.68
392.834	52.39
393.211	49.8
393.587	3.08
393.963	-113.7
394.34	-20.28
394.716	-82.56
395.092	49.8
395.468	-4.7
395.844	-108.51
396.22	153.61
396.596	-30.66
396.972	13.46
397.348	-41.04
397.724	-2.11
398.1	-38.44
398.476	88.72
398.851	78.34
399.227	-28.06
399.603	18.65
399.978	78.34
400.354	39.42
400.729	-15.08
401.105	-4.7
401.48	86.13
401.856	-33.25
402.231	112.08
402.606	-56.61
402.982	21.25
403.357	42.01
403.732	-17.68
404.107	169.18
404.482	39.42
404.857	49.8
405.232	5.68
405.607	73.15
405.982	21.25
406.357	60.18
406.732	39.42
407.107	-77.37
407.482	-64.39
407.856	-66.99
408.231	65.37
408.606	3.08
408.98	36.82
409.355	13.46
409.729	34.22
410.104	26.44
410.478	5.68
410.852	57.58
411.227	42.01
411.601	31.63
411.975	-92.94
412.35	5.68
412.724	-30.66
413.098	13.46
413.472	93.92
413.846	-82.56
414.22	67.96
414.594	42.01
414.968	5.68
415.342	-33.25
415.715	-22.87
416.089	10.87
416.463	-66.99
416.837	-28.06
417.21	23.84
417.584	-12.49
417.957	39.42
418.331	91.32
418.704	57.58
419.078	93.92
419.451	127.65
419.824	39.42
420.198	8.27
420.571	65.37
420.944	70.56
421.317	62.77
421.69	54.99
422.064	65.37
422.437	36.82
422.81	-48.82
423.182	8.27
423.555	125.06
423.928	67.96
424.301	-12.49
424.674	42.01
425.047	3.08
425.419	-9.89
425.792	99.11
426.164	13.46
426.537	-48.82
426.91	16.06
427.282	88.72
427.654	3.08
428.027	21.25
428.399	-35.85
428.771	18.65
429.144	60.18
429.516	88.72
429.888	-22.87
430.26	-17.68
430.632	-43.63
431.004	-33.25
431.376	54.99
431.748	34.22
432.12	-87.75
432.492	29.03
432.864	34.22
433.236	-82.56
433.607	-46.23
433.979	-33.25
434.351	80.94
434.722	21.25
435.094	29.03
435.465	21.25
435.837	101.7
436.208	195.13
436.58	195.13
436.951	54.99
437.322	36.82
437.693	18.65
438.065	-33.25
438.436	86.13
438.807	0.49
439.178	101.7
439.549	-105.92
439.92	44.61
440.291	21.25
440.662	-59.2
441.033	101.7
441.403	112.08
441.774	16.06
442.145	44.61
442.516	52.39
442.886	148.42
443.257	80.94
443.627	21.25
443.998	16.06
444.368	-43.63
444.739	31.63
445.109	34.22
445.479	21.25
445.85	91.32
446.22	-100.73
446.59	-9.89
446.96	114.68
447.33	91.32
447.7	117.27
448.07	31.63
448.44	16.06
448.81	13.46
449.18	75.75
449.55	36.82
449.92	10.87
450.29	-69.58
450.659	-25.47
451.029	21.25
451.399	34.22
451.768	34.22
452.138	21.25
452.507	29.03
452.877	18.65
453.246	88.72
453.615	5.68
453.985	31.63
454.354	112.08
454.723	-28.06
455.092	21.25
455.462	-28.06
455.831	52.39
456.2	86.13
456.569	0.49
456.938	-2.11
457.307	88.72
457.675	60.18
458.044	93.92
458.413	60.18
458.782	101.7
459.15	80.94
459.519	-2.11
459.888	-4.7
460.256	44.61
460.625	106.89
460.993	13.46
461.362	29.03
461.73	78.34
462.098	-30.66
462.467	10.87
462.835	-4.7
463.203	75.75
463.571	-28.06
463.939	-61.8
464.307	52.39
464.675	52.39
465.043	31.63
465.411	26.44
465.779	83.53
466.147	21.25
466.515	93.92
466.883	29.03
467.25	125.06
467.618	70.56
467.986	119.87
468.353	86.13
468.721	-7.3
469.088	-15.08
469.456	-17.68
469.823	47.2
470.19	10.87
470.558	67.96
470.925	44.61
471.292	31.63
471.659	99.11
472.027	132.84
472.394	42.01
472.761	47.2
473.128	96.51
473.495	60.18
473.862	13.46
474.228	65.37
474.595	-7.3
474.962	156.2
475.329	70.56
475.695	-15.08
476.062	5.68
476.429	52.39
476.795	65.37
477.162	96.51
477.528	39.42
477.895	36.82
478.261	80.94
478.627	62.77
478.994	47.2
479.36	-64.39
479.726	-59.2
480.092	169.18
480.458	-2.11
480.824	39.42
481.19	-38.44
481.556	47.2
481.922	-25.47
482.288	39.42
482.654	54.99
483.02	21.25
483.385	44.61
483.751	21.25
484.117	96.51
484.482	-30.66
484.848	21.25
485.213	67.96
485.579	67.96
485.944	-92.94
486.31	-7.3
486.675	16.06
487.04	60.18
487.406	18.65
487.771	73.15
488.136	104.3
488.501	60.18
488.866	23.84
489.231	101.7
489.596	67.96
489.961	140.63
490.326	65.37
490.691	57.58
491.056	8.27
491.42	-59.2
491.785	73.15
492.15	47.2
492.514	93.92
492.879	60.18
493.243	62.77
493.608	29.03
493.972	-12.49
494.337	156.2
494.701	-126.68
495.065	21.25
495.43	23.84
495.794	-17.68
496.158	62.77
496.522	29.03
496.886	10.87
497.25	-9.89
497.614	-4.7
497.978	109.49
498.342	3.08
498.706	44.61
499.07	62.77
499.433	18.65
499.797	3.08
500.161	62.77
500.524	-92.94
500.888	21.25
501.251	3.08
501.615	78.34
501.978	-43.63
502.342	-2.11
502.705	80.94
503.068	62.77
503.432	0.49
503.795	-28.06
504.158	174.37
504.521	65.37
504.884	88.72
505.247	-54.01
505.61	0.49
505.973	101.7
506.336	78.34
506.699	-15.08
507.062	54.99
507.424	44.61
507.787	60.18
508.15	54.99
508.512	78.34
508.875	16.06
509.238	78.34
509.6	138.03
509.962	52.39
510.325	-17.68
510.687	52.39
511.049	-103.32
511.412	83.53
511.774	-17.68
512.136	114.68
512.498	78.34
512.86	31.63
513.222	-33.25
513.584	-4.7
513.946	10.87
514.308	5.68
514.67	65.37
515.032	3.08
515.393	130.25
515.755	93.92
516.117	-12.49
516.478	5.68
516.84	21.25
517.201	57.58
517.563	42.01
517.924	13.46
518.286	31.63
518.647	-15.08
519.008	65.37
519.37	-15.08
519.731	42.01
520.092	-64.39
520.453	96.51
520.814	-20.28
521.175	62.77
521.536	29.03
521.897	117.27
522.258	-15.08
522.619	62.77
522.979	93.92
523.34	158.8
523.701	36.82
524.061	65.37
524.422	80.94
524.783	80.94
525.143	42.01
525.504	8.27
525.864	67.96
526.224	-33.25
526.585	-7.3
526.945	112.08
527.305	65.37
527.665	91.32
528.025	54.99
528.385	31.63
528.746	3.08
529.106	125.06
529.465	-59.2
529.825	21.25
530.185	54.99
530.545	-9.89
530.905	83.53
531.264	88.72
531.624	-22.87
531.984	26.44
532.343	13.46
532.703	57.58
533.062	-4.7
533.422	60.18
533.781	57.58
534.141	88.72
534.5	-121.49
534.859	73.15
535.218	34.22
535.577	13.46
535.937	86.13
536.296	36.82
536.655	44.61
537.014	31.63
537.373	47.2
537.731	62.77
538.09	67.96
538.449	26.44
538.808	117.27
539.166	62.77
539.525	47.2
539.884	49.8
540.242	47.2
540.601	31.63
540.959	39.42
541.318	54.99
541.676	70.56
542.034	65.37
542.393	96.51
542.751	101.7
543.109	47.2
543.467	101.7
543.825	5.68
544.183	-15.08
544.541	184.75
544.899	192.53
545.257	70.56
545.615	5.68
545.973	60.18
546.331	-105.92
546.688	93.92
547.046	122.46
547.404	23.84
547.761	3.08
548.119	8.27
548.476	39.42
548.834	60.18
549.191	145.82
549.548	62.77
549.906	3.08
550.263	-137.06
550.62	49.8
550.977	-35.85
551.334	54.99
551.691	-20.28
552.048	23.84
552.405	70.56
552.762	70.56
553.119	-77.37
553.476	42.01
553.833	73.15
554.189	39.42
554.546	-2.11
554.903	-2.11
555.259	65.37
555.616	26.44
555.972	70.56
556.329	3.08
556.685	54.99
557.042	-15.08
557.398	-46.23
557.754	75.75
558.11	21.25
558.467	119.87
558.823	16.06
559.179	86.13
559.535	36.82
559.891	-56.61
560.247	3.08
560.603	-9.89
560.958	5.68
561.314	47.2
561.67	31.63
562.026	57.58
562.381	78.34
562.737	0.49
563.092	3.08
563.448	0.49
563.803	29.03
564.159	8.27
564.514	26.44
564.869	16.06
565.225	73.15
565.58	8.27
565.935	70.56
566.29	29.03
566.645	42.01
567	47.2
567.355	86.13
567.71	39.42
568.065	49.8
568.42	-22.87
568.775	49.8
569.13	67.96
569.484	-33.25
569.839	-59.2
570.193	-33.25
570.548	49.8
570.903	-25.47
571.257	86.13
571.611	31.63
571.966	44.61
572.32	3.08
572.674	47.2
573.029	-4.7
573.383	-20.28
573.737	-20.28
574.091	0.49
574.445	-46.23
574.799	31.63
575.153	65.37
575.507	31.63
575.861	83.53
576.215	65.37
576.568	39.42
576.922	10.87
577.276	29.03
577.629	-7.3
577.983	-25.47
578.336	-54.01
578.69	26.44
579.043	86.13
579.397	73.15
579.75	-82.56
580.103	18.65
580.456	49.8
580.81	0.49
581.163	-66.99
581.516	-12.49
581.869	60.18
582.222	-12.49
582.575	-79.97
582.928	31.63
583.281	70.56
583.633	-22.87
583.986	-126.68
584.339	-82.56
584.691	-79.97
585.044	-79.97
585.397	34.22
585.749	18.65
586.102	-43.63
586.454	-87.75
586.806	10.87
587.159	-165.61
587.511	-230.49
587.863	-235.68
588.215	-222.7
588.567	-157.82
588.92	-212.32
589.272	-178.58
589.624	-77.37
589.975	-155.23
590.327	-214.92
590.679	-181.18
591.031	-126.68
591.383	-183.78
591.734	-181.18
592.086	-150.04
592.438	-246.06
592.789	-266.82
593.141	-342.09
593.492	-432.92
593.844	-381.01
594.195	-388.8
594.546	-316.13
594.898	-253.85
595.249	-207.13
595.6	-191.56
595.951	-168.2
596.302	-116.3
596.653	-238.28
597.004	-201.94
597.355	-139.66
597.706	-199.35
598.057	-246.06
598.408	-272.01
598.758	-290.18
599.109	-417.35
599.46	-417.35
599.81	-419.94
600.161	-500.39
600.511	-477.04
600.862	-474.44
601.212	-365.44
601.562	-334.3
601.913	-297.97
602.263	-259.04
602.613	-300.56
602.963	-246.06
603.313	-235.68
603.663	-279.8
604.013	-170.8
604.363	-256.44
604.713	-207.13
605.063	-269.42
605.413	-222.7
605.763	-331.7
606.112	-357.66
606.462	-409.56
606.812	-412.16
607.161	-448.49
607.511	-505.59
607.86	-573.06
608.21	-757.32
608.559	-736.56
608.908	-998.68
609.258	-1442.47
609.607	-1559.25
609.956	-2361.18
610.305	-3477.13
610.654	-5763.54
611.003	-10017.14
611.352	-15402.26
611.701	-18789.05
612.05	-18085.74
612.399	-15666.98
612.748	-12402.17
613.097	-9934.09
613.445	-8177.11
613.794	-6677.07
614.143	-6080.16
614.491	-5657.14
614.84	-5278.23
615.188	-4909.71
615.537	-4450.35
615.885	-3850.85
616.233	-3191.66
616.581	-2773.82
616.93	-2420.87
617.278	-1992.66
617.626	-1919.99
617.974	-1720.16
618.322	-1507.35
618.67	-1533.3
619.018	-1567.04
619.366	-1608.56
619.714	-1624.13
620.061	-1823.97
620.409	-1790.23
620.757	-1862.9
621.104	-1969.3
621.452	-1948.54
621.799	-1764.28
622.147	-1857.71
622.494	-1618.94
622.842	-1722.75
623.189	-1676.04
623.536	-1491.78
623.884	-1600.78
624.231	-1543.68
624.578	-1546.28
624.925	-1574.82
625.272	-1411.32
625.619	-1336.06
625.966	-1432.09
626.313	-1281.56
626.66	-1234.85
627.007	-1224.47
627.353	-1193.32
627.7	-1245.23
628.047	-1315.3
628.393	-1242.63
628.74	-1081.73
629.086	-1250.42
629.433	-1201.11
629.779	-1432.09
630.125	-1556.66
630.472	-1875.87
630.818	-2296.3
631.164	-2921.75
631.51	-3222.8
631.857	-3103.42
632.203	-2506.52
632.549	-1917.4
632.895	-1437.28
633.24	-1006.47
633.586	-804.04
633.932	-588.63
634.278	-393.99
634.624	-370.63
634.969	-308.35
635.315	-168.2
635.66	-326.51
636.006	-300.56
636.351	-196.75
636.697	-175.99
637.042	-64.39
637.388	-113.7
637.733	148.42
638.078	350.84
638.423	4822.44
638.768	10212.76
639.113	10698.07
639.458	13801.97
639.803	17764.9
640.148	11217.11
640.493	6511.94
640.838	4087.99
641.183	2247.96
641.527	1256.58
641.872	625.94
642.217	140.63
642.561	29.03
642.906	-134.47
643.25	-160.42
643.595	-191.56
643.939	-196.75
644.284	-261.63
644.628	-77.37
644.972	-204.54
645.316	-264.23
645.66	-292.78
646.004	-261.63
646.348	-194.16
646.692	-238.28
647.036	-188.97
647.38	-204.54
647.724	-344.68
648.068	-175.99
648.412	-329.11
648.755	-287.59
649.099	-253.85
649.443	-412.16
649.786	-417.35
650.13	-487.42
650.473	-767.7
650.816	-983.11
651.16	-1094.7
651.503	-920.82
651.846	-767.7
652.189	-599.01
652.533	-456.28
652.876	-508.18
653.219	-482.23
653.562	-443.3
653.905	-492.61
654.247	-477.04
654.59	-313.54
654.933	-303.16
655.276	-269.42
655.619	-238.28
655.961	-105.92
656.304	-194.16
656.646	-95.54
656.989	-188.97
657.331	-38.44
657.674	-277.2
658.016	-264.23
658.358	-183.78
658.701	-282.39
659.043	-259.04
659.385	-259.04
659.727	-139.66
660.069	-238.28
660.411	-220.11
660.753	-87.75
661.095	-129.28
661.437	-131.87
661.778	-220.11
662.12	-308.35
662.462	-414.75
662.804	-624.97
663.145	-700.23
663.487	-531.54
663.828	-549.7
664.17	-399.18
664.511	-448.49
664.852	-323.92
665.194	-266.82
665.535	-233.08
665.876	-178.58
666.217	-131.87
666.558	-199.35
666.899	-300.56
667.24	-207.13
667.581	-256.44
667.922	-238.28
668.263	-173.39
668.604	-344.68
668.944	-339.49
669.285	-259.04
669.626	-316.13
669.966	-129.28
670.307	-272.01
670.647	-181.18
670.988	-191.56
671.328	-196.75
671.669	-199.35
672.009	-292.78
672.349	-175.99
672.689	-118.89
673.029	-253.85
673.369	-116.3
673.71	-303.16
674.049	-155.23
674.389	-227.89
674.729	-134.47
675.069	-100.73
675.409	-79.97
675.749	-72.18
676.088	-59.2
676.428	-139.66
676.768	-144.85
677.107	-238.28
677.447	-196.75
677.786	-46.23
678.125	-199.35
678.465	-204.54
678.804	-139.66
679.143	-191.56
679.482	-186.37
679.821	-137.06
680.161	-150.04
680.5	-186.37
680.839	-207.13
681.177	-253.85
681.516	-137.06
681.855	-113.7
682.194	-165.61
682.533	-201.94
682.871	-227.89
683.21	-126.68
683.549	-157.82
683.887	-212.32
684.225	-111.11
684.564	-35.85
684.902	-79.97
685.241	-121.49
685.579	42.01
685.917	-30.66
686.255	-157.82
686.593	-212.32
686.931	-165.61
687.269	-409.56
687.607	-500.39
687.945	-521.16
688.283	-497.8
688.621	-510.78
688.959	-419.94
689.296	-349.87
689.634	-282.39
689.972	-217.51
690.309	-111.11
690.647	-92.94
690.984	-170.8
691.322	-147.44
691.659	-111.11
691.996	-15.08
692.333	-72.18
692.671	-85.16
693.008	-142.25
693.345	-129.28
693.682	-360.25
694.019	-323.92
694.356	-313.54
694.693	-388.8
695.03	-284.99
695.366	-279.8
695.703	-199.35
696.04	-43.63
696.376	-150.04
696.713	-82.56
697.05	-105.92
697.386	-121.49
697.722	-2.11
698.059	-35.85
698.395	39.42
698.731	-69.58
699.068	10.87
699.404	-74.78
699.74	-66.99
700.076	-28.06
700.412	-51.42
700.748	-111.11
701.084	-28.06
701.42	13.46
701.756	-15.08
702.091	-92.94
702.427	10.87
702.763	-144.85
703.098	-51.42
703.434	-108.51
703.769	-152.63
704.105	-139.66
704.44	-116.3
704.776	-186.37
705.111	-227.89
705.446	-300.56
705.781	-329.11
706.117	-515.97
706.452	-609.39
706.787	-842.97
707.122	-1182.94
707.457	-1229.66
707.792	-1400.94
708.126	-1162.18
708.461	-1009.06
708.796	-1141.42
709.131	-1494.37
709.465	-1598.18
709.8	-1577.42
710.134	-1263.4
710.469	-1045.4
710.803	-718.39
711.138	-627.56
711.472	-536.73
711.806	-643.13
712.14	-772.89
712.475	-1154.4
712.809	-1250.42
713.143	-1110.28
713.477	-1042.8
713.811	-710.61
714.145	-650.92
714.479	-440.7
714.812	-259.04
715.146	-150.04
715.48	-85.16
715.814	-144.85
716.147	-90.35
716.481	-69.58
716.814	-15.08
717.148	-2.11
717.481	78.34
717.814	-20.28
718.148	-77.37
718.481	10.87
718.814	-43.63
719.147	-4.7
719.48	-74.78
719.813	-173.39
720.146	-64.39
720.479	18.65
720.812	10.87
721.145	-48.82
721.478	26.44
721.81	-79.97
722.143	49.8
722.476	31.63
722.808	26.44
723.141	-69.58
723.473	-25.47
723.806	117.27
724.138	70.56
724.47	-17.68
724.803	47.2
725.135	-28.06
725.467	-15.08
725.799	-7.3
726.131	99.11
726.463	-173.39
726.795	0.49
727.127	44.61
727.459	83.53
727.791	-12.49
728.122	0.49
728.454	86.13
728.786	10.87
729.117	0.49
729.449	-17.68
729.78	-95.54
730.112	-4.7
730.443	-111.11
730.774	8.27
731.106	-15.08
731.437	13.46
731.768	-4.7
732.099	16.06
732.43	-38.44
732.761	-25.47
733.092	-51.42
733.423	10.87
733.754	57.58
734.085	5.68
734.416	62.77
734.746	10.87
735.077	-46.23
735.407	-66.99
735.738	26.44
736.068	67.96
736.399	-2.11
736.729	-12.49
737.06	88.72
737.39	34.22
737.72	-2.11
738.05	-54.01
738.38	-85.16
738.71	-43.63
739.041	-51.42
739.37	49.8
739.7	-12.49
740.03	39.42
740.36	-54.01
740.69	21.25
741.02	-43.63
741.349	-2.11
741.679	-12.49
742.008	-7.3
742.338	-38.44
742.667	-74.78
742.997	-43.63
743.326	-116.3
743.655	-25.47
743.984	16.06
744.314	-54.01
744.643	-90.35
744.972	-22.87
745.301	-160.42
745.63	-59.2
745.959	18.65
746.288	-9.89
746.616	-12.49
746.945	-33.25
747.274	73.15
747.603	-64.39
747.931	5.68
748.26	60.18
748.588	101.7
748.917	21.25
749.245	34.22
749.573	34.22
749.902	-22.87
750.23	44.61
750.558	23.84
750.886	-41.04
751.214	62.77
751.542	-2.11
751.87	10.87
752.198	-56.61
752.526	-4.7
752.854	-54.01
753.182	70.56
753.509	13.46
753.837	13.46
754.165	49.8
754.492	-64.39
754.82	8.27
755.147	21.25
755.474	0.49
755.802	39.42
756.129	60.18
756.456	138.03
756.783	-17.68
757.111	-46.23
757.438	-74.78
757.765	70.56
758.092	130.25
758.418	62.77
758.745	-131.87
759.072	-48.82
759.399	-85.16
759.726	-253.85
760.052	-310.94
760.379	-471.85
760.705	-539.32
761.032	-443.3
761.358	-417.35
761.685	-225.3
762.011	-225.3
762.337	-129.28
762.663	-72.18
762.99	8.27
763.316	47.2
763.642	26.44
763.968	44.61
764.294	-51.42
764.62	-79.97
764.946	-38.44
765.271	96.51
765.597	99.11
765.923	-100.73
766.248	57.58
766.574	67.96
766.9	36.82
767.225	-9.89
767.55	21.25
767.876	65.37
768.201	-25.47
768.526	83.53
768.852	-15.08
769.177	-12.49
769.502	-30.66
769.827	-77.37
770.152	3.08
770.477	-95.54
770.802	-28.06
771.127	86.13
771.451	8.27
771.776	16.06
772.101	-12.49
772.425	-103.32
772.75	16.06
773.075	-43.63
773.399	88.72
773.723	-12.49
774.048	42.01
774.372	-28.06
774.696	-7.3
775.02	73.15
775.345	-2.11
775.669	132.84
775.993	-20.28
776.317	31.63
776.641	-2.11
776.965	39.42
777.288	148.42
777.612	-103.32
777.936	21.25
778.26	-22.87
778.583	8.27
778.907	0.49
779.23	34.22
779.554	-25.47
779.877	-7.3
780.2	18.65
780.524	-85.16
780.847	16.06
781.17	36.82
781.493	-41.04
781.816	-48.82
782.139	-22.87
782.462	3.08
