Data from Subt2_19-08-51-998.txt Node
Date: Wed Feb 22 19:08:51 CST 2023
User: Optics Lab
Spectrometer: FLMS14302
Trigger mode: 0
Integration Time (sec): 1.000000E-1
Scans to average: 1
Electric dark correction enabled: true
Nonlinearity correction enabled: false
Boxcar width: 0
XAxis mode: Wavelengths
Number of Pixels in Spectrum: 2048
>>>>>Begin Spectral Data<<<<<
338.578	4.54
338.961	4.54
339.343	4.54
339.725	27.9
340.108	25.3
340.49	-60.34
340.872	25.3
341.254	1.95
341.636	-16.22
342.018	59.04
342.4	-60.34
342.782	-65.53
343.164	4.54
343.546	33.09
343.928	12.33
344.309	30.49
344.691	-21.41
345.073	84.99
345.455	35.68
345.836	-78.51
346.218	14.92
346.599	-57.74
346.981	25.3
347.362	53.85
347.744	-18.82
348.125	-65.53
348.506	-3.24
348.888	12.33
349.269	59.04
349.65	-3.24
350.031	105.76
350.413	-75.91
350.794	72.02
351.175	38.28
351.556	38.28
351.937	30.49
352.318	-0.65
352.698	66.83
353.079	12.33
353.46	-52.55
353.841	-47.36
354.222	4.54
354.602	33.09
354.983	72.02
355.363	-31.79
355.744	64.23
356.124	48.66
356.505	-8.43
356.885	-11.03
357.266	-5.84
357.646	20.11
358.026	9.73
358.407	82.4
358.787	118.73
359.167	27.9
359.547	-120.03
359.927	40.88
360.307	92.78
360.687	-8.43
361.067	53.85
361.447	105.76
361.827	-0.65
362.207	61.64
362.587	-39.58
362.966	-39.58
363.346	-26.6
363.726	56.45
364.105	-57.74
364.485	-44.77
364.865	-24.01
365.244	90.18
365.624	-3.24
366.003	33.09
366.382	-62.93
366.762	97.97
367.141	-57.74
367.52	48.66
367.899	-5.84
368.279	-5.84
368.658	59.04
369.037	-13.63
369.416	53.85
369.795	1.95
370.174	110.95
370.553	-13.63
370.932	-5.84
371.311	-44.77
371.689	66.83
372.068	-24.01
372.447	-8.43
372.825	27.9
373.204	-29.2
373.583	-13.63
373.961	87.59
374.34	20.11
374.718	-91.48
375.097	-34.39
375.475	53.85
375.853	22.71
376.232	40.88
376.61	20.11
376.988	-21.41
377.366	-8.43
377.744	64.23
378.122	14.92
378.5	-68.13
378.878	30.49
379.256	-39.58
379.634	-42.17
380.012	22.71
380.39	59.04
380.768	25.3
381.145	12.33
381.523	-26.6
381.901	87.59
382.278	17.52
382.656	27.9
383.033	-36.98
383.411	69.42
383.788	-65.53
384.166	-99.27
384.543	43.47
384.921	53.85
385.298	64.23
385.675	-44.77
386.052	-29.2
386.429	4.54
386.806	-18.82
387.184	7.14
387.561	100.57
387.938	-68.13
388.314	-34.39
388.691	-52.55
389.068	118.73
389.445	20.11
389.822	1.95
390.198	61.64
390.575	-42.17
390.952	-60.34
391.328	-31.79
391.705	-5.84
392.081	103.16
392.458	-11.03
392.834	14.92
393.211	82.4
393.587	74.61
393.963	-99.27
394.34	-26.6
394.716	-3.24
395.092	-47.36
395.468	9.73
395.844	-8.43
396.22	74.61
396.596	-52.55
396.972	-29.2
397.348	20.11
397.724	48.66
398.1	-13.63
398.476	14.92
398.851	51.26
399.227	-11.03
399.603	-21.41
399.978	77.21
400.354	1.95
400.729	9.73
401.105	-31.79
401.48	61.64
401.856	-3.24
402.231	72.02
402.606	-57.74
402.982	-11.03
403.357	-52.55
403.732	-16.22
404.107	97.97
404.482	48.66
404.857	20.11
405.232	4.54
405.607	59.04
405.982	48.66
406.357	-52.55
406.732	46.07
407.107	1.95
407.482	-13.63
407.856	-47.36
408.231	14.92
408.606	-18.82
408.98	-42.17
409.355	14.92
409.729	-34.39
410.104	-29.2
410.478	30.49
410.852	56.45
411.227	43.47
411.601	9.73
411.975	-11.03
412.35	56.45
412.724	-75.91
413.098	4.54
413.472	92.78
413.846	-68.13
414.22	53.85
414.594	-36.98
414.968	7.14
415.342	-42.17
415.715	-8.43
416.089	30.49
416.463	-143.39
416.837	-42.17
417.21	4.54
417.584	9.73
417.957	103.16
418.331	-34.39
418.704	35.68
419.078	69.42
419.451	61.64
419.824	82.4
420.198	35.68
420.571	84.99
420.944	38.28
421.317	4.54
421.69	35.68
422.064	-3.24
422.437	33.09
422.81	-130.41
423.182	-13.63
423.555	69.42
423.928	-3.24
424.301	-39.58
424.674	27.9
425.047	-44.77
425.419	-16.22
425.792	43.47
426.164	40.88
426.537	-34.39
426.91	-36.98
427.282	95.38
427.654	17.52
428.027	-26.6
428.399	79.8
428.771	53.85
429.144	126.52
429.516	92.78
429.888	-55.15
430.26	14.92
430.632	-60.34
431.004	30.49
431.376	40.88
431.748	108.35
432.12	-44.77
432.492	46.07
432.864	35.68
433.236	-36.98
433.607	-96.67
433.979	-73.32
434.351	59.04
434.722	22.71
435.094	48.66
435.465	33.09
435.837	139.49
436.208	290.02
436.58	243.3
436.951	129.11
437.322	84.99
437.693	69.42
438.065	25.3
438.436	84.99
438.807	43.47
439.178	53.85
439.549	-78.51
439.92	59.04
440.291	-29.2
440.662	46.07
441.033	113.54
441.403	59.04
441.774	-49.96
442.145	4.54
442.516	152.47
442.886	129.11
443.257	136.9
443.627	-26.6
443.998	1.95
444.368	-18.82
444.739	-13.63
445.109	30.49
445.479	27.9
445.85	95.38
446.22	20.11
446.59	9.73
446.96	103.16
447.33	38.28
447.7	84.99
448.07	14.92
448.44	51.26
448.81	-21.41
449.18	12.33
449.55	4.54
449.92	-3.24
450.29	-47.36
450.659	-21.41
451.029	100.57
451.399	48.66
451.768	74.61
452.138	38.28
452.507	103.16
452.877	43.47
453.246	142.09
453.615	77.21
453.985	87.59
454.354	92.78
454.723	90.18
455.092	79.8
455.462	-13.63
455.831	43.47
456.2	129.11
456.569	121.33
456.938	90.18
457.307	142.09
457.675	160.26
458.044	64.23
458.413	126.52
458.782	77.21
459.15	82.4
459.519	100.57
459.888	105.76
460.256	14.92
460.625	27.9
460.993	-5.84
461.362	35.68
461.73	56.45
462.098	48.66
462.467	74.61
462.835	33.09
463.203	126.52
463.571	33.09
463.939	-57.74
464.307	38.28
464.675	82.4
465.043	103.16
465.411	48.66
465.779	53.85
466.147	87.59
466.515	113.54
466.883	92.78
467.25	136.9
467.618	103.16
467.986	131.71
468.353	77.21
468.721	-26.6
469.088	33.09
469.456	61.64
469.823	95.38
470.19	79.8
470.558	126.52
470.925	38.28
471.292	51.26
471.659	123.92
472.027	100.57
472.394	72.02
472.761	64.23
473.128	118.73
473.495	118.73
473.862	43.47
474.228	-68.13
474.595	53.85
474.962	95.38
475.329	121.33
475.695	61.64
476.062	-34.39
476.429	53.85
476.795	77.21
477.162	155.07
477.528	56.45
477.895	53.85
478.261	30.49
478.627	84.99
478.994	35.68
479.36	64.23
479.726	43.47
480.092	40.88
480.458	-0.65
480.824	64.23
481.19	-65.53
481.556	-5.84
481.922	87.59
482.288	82.4
482.654	74.61
483.02	40.88
483.385	38.28
483.751	95.38
484.117	14.92
484.482	40.88
484.848	149.88
485.213	95.38
485.579	95.38
485.944	-44.77
486.31	82.4
486.675	95.38
487.04	100.57
487.406	90.18
487.771	134.3
488.136	97.97
488.501	43.47
488.866	4.54
489.231	131.71
489.596	46.07
489.961	178.42
490.326	100.57
490.691	100.57
491.056	170.64
491.42	48.66
491.785	87.59
492.15	129.11
492.514	136.9
492.879	90.18
493.243	-34.39
493.608	110.95
493.972	53.85
494.337	116.14
494.701	-21.41
495.065	40.88
495.43	7.14
495.794	95.38
496.158	105.76
496.522	40.88
496.886	-26.6
497.25	-8.43
497.614	17.52
497.978	116.14
498.342	-21.41
498.706	126.52
499.07	64.23
499.433	-16.22
499.797	48.66
500.161	51.26
500.524	82.4
500.888	38.28
501.251	43.47
501.615	82.4
501.978	25.3
502.342	-36.98
502.705	110.95
503.068	105.76
503.432	-21.41
503.795	-18.82
504.158	168.04
504.521	136.9
504.884	74.61
505.247	-11.03
505.61	53.85
505.973	43.47
506.336	136.9
506.699	-0.65
507.062	-11.03
507.424	108.35
507.787	30.49
508.15	17.52
508.512	77.21
508.875	14.92
509.238	142.09
509.6	82.4
509.962	-49.96
510.325	-3.24
510.687	22.71
511.049	-86.29
511.412	56.45
511.774	-52.55
512.136	103.16
512.498	59.04
512.86	129.11
513.222	-18.82
513.584	66.83
513.946	9.73
514.308	-29.2
514.67	-24.01
515.032	95.38
515.393	209.57
515.755	82.4
516.117	59.04
516.478	-0.65
516.84	97.97
517.201	40.88
517.563	129.11
517.924	95.38
518.286	129.11
518.647	22.71
519.008	61.64
519.37	27.9
519.731	79.8
520.092	-75.91
520.453	59.04
520.814	56.45
521.175	22.71
521.536	48.66
521.897	139.49
522.258	72.02
522.619	69.42
522.979	126.52
523.34	97.97
523.701	121.33
524.061	66.83
524.422	17.52
524.783	139.49
525.143	100.57
525.504	46.07
525.864	7.14
526.224	25.3
526.585	27.9
526.945	131.71
527.305	38.28
527.665	82.4
528.025	64.23
528.385	77.21
528.746	53.85
529.106	160.26
529.465	-11.03
529.825	103.16
530.185	74.61
530.545	25.3
530.905	105.76
531.264	87.59
531.624	4.54
531.984	90.18
532.343	7.14
532.703	64.23
533.062	22.71
533.422	69.42
533.781	84.99
534.141	79.8
534.5	27.9
534.859	191.4
535.218	69.42
535.577	53.85
535.937	35.68
536.296	48.66
536.655	7.14
537.014	110.95
537.373	108.35
537.731	-3.24
538.09	69.42
538.449	129.11
538.808	131.71
539.166	-8.43
539.525	72.02
539.884	123.92
540.242	90.18
540.601	84.99
540.959	118.73
541.318	61.64
541.676	123.92
542.034	196.59
542.393	300.4
542.751	365.28
543.109	347.11
543.467	347.11
543.825	206.97
544.183	300.4
544.541	341.92
544.899	271.85
545.257	287.42
545.615	206.97
545.973	284.83
546.331	227.73
546.688	315.97
547.046	155.07
547.404	191.4
547.761	147.28
548.119	40.88
548.476	157.66
548.834	191.4
549.191	204.38
549.548	43.47
549.906	118.73
550.263	40.88
550.62	84.99
550.977	35.68
551.334	66.83
551.691	27.9
552.048	66.83
552.405	77.21
552.762	193.99
553.119	59.04
553.476	144.68
553.833	95.38
554.189	131.71
554.546	25.3
554.903	66.83
555.259	77.21
555.616	43.47
555.972	9.73
556.329	64.23
556.685	53.85
557.042	64.23
557.398	72.02
557.754	134.3
558.11	-34.39
558.467	51.26
558.823	-11.03
559.179	97.97
559.535	-0.65
559.891	9.73
560.247	20.11
560.603	72.02
560.958	27.9
561.314	66.83
561.67	46.07
562.026	92.78
562.381	108.35
562.737	48.66
563.092	7.14
563.448	116.14
563.803	46.07
564.159	-8.43
564.514	40.88
564.869	-8.43
565.225	168.04
565.58	-29.2
565.935	92.78
566.29	72.02
566.645	20.11
567	105.76
567.355	61.64
567.71	-11.03
568.065	4.54
568.42	-31.79
568.775	84.99
569.13	25.3
569.484	35.68
569.839	-34.39
570.193	9.73
570.548	116.14
570.903	-24.01
571.257	17.52
571.611	33.09
571.966	25.3
572.32	1.95
572.674	27.9
573.029	-5.84
573.383	-8.43
573.737	-44.77
574.091	43.47
574.445	59.04
574.799	110.95
575.153	61.64
575.507	51.26
575.861	53.85
576.215	61.64
576.568	74.61
576.922	-0.65
577.276	-36.98
577.629	61.64
577.983	-47.36
578.336	-55.15
578.69	-73.32
579.043	110.95
579.397	72.02
579.75	64.23
580.103	66.83
580.456	30.49
580.81	72.02
581.163	-36.98
581.516	66.83
581.869	-29.2
582.222	72.02
582.575	-57.74
582.928	-3.24
583.281	-18.82
583.633	-88.89
583.986	9.73
584.339	-24.01
584.691	-29.2
585.044	-109.65
585.397	-34.39
585.749	66.83
586.102	17.52
586.454	-21.41
586.806	27.9
587.159	-96.67
587.511	-174.53
587.863	-143.39
588.215	-197.89
588.567	-169.34
588.92	-31.79
589.272	-120.03
589.624	-55.15
589.975	-130.41
590.327	-249.79
590.679	-130.41
591.031	-75.91
591.383	-42.17
591.734	-216.05
592.086	-182.32
592.438	-117.43
592.789	-192.7
593.141	-260.17
593.492	-351.01
593.844	-314.67
594.195	-226.43
594.546	-210.86
594.898	-296.51
595.249	-169.34
595.6	-114.84
595.951	-164.15
596.302	-42.17
596.653	-210.86
597.004	-192.7
597.355	-197.89
597.706	-140.79
598.057	-213.46
598.408	-205.67
598.758	-309.48
599.109	-322.46
599.46	-345.82
599.81	-527.48
600.161	-444.43
600.511	-532.67
600.862	-400.32
601.212	-426.27
601.562	-319.86
601.913	-319.86
602.263	-213.46
602.613	-190.1
602.963	-161.55
603.313	-174.53
603.663	-226.43
604.013	-164.15
604.363	-257.58
604.713	-226.43
605.063	-249.79
605.413	-273.15
605.763	-270.55
606.112	-382.15
606.462	-392.53
606.812	-410.7
607.161	-358.79
607.511	-540.46
607.86	-636.48
608.21	-592.36
608.559	-678.01
608.908	-1010.2
609.258	-1334.6
609.607	-1581.15
609.956	-2300.03
610.305	-3322.56
610.654	-5660.87
611.003	-9885.92
611.352	-14990.75
611.701	-18325.64
612.05	-17528.9
612.399	-15146.47
612.748	-12169.73
613.097	-9753.56
613.445	-8006.96
613.794	-6512.11
614.143	-5959.32
614.491	-5372.8
614.84	-5100.3
615.188	-4731.77
615.537	-4321.72
615.885	-3774.13
616.233	-3190.2
616.581	-2699.7
616.93	-2289.65
617.278	-1962.65
617.626	-1923.72
617.974	-1635.65
618.322	-1474.75
618.67	-1529.25
619.018	-1547.41
619.366	-1583.75
619.714	-1581.15
620.061	-1682.36
620.409	-1708.32
620.757	-1848.46
621.104	-1944.48
621.452	-1915.94
621.799	-1677.17
622.147	-1793.96
622.494	-1594.13
622.842	-1705.72
623.189	-1617.48
623.536	-1492.91
623.884	-1557.79
624.231	-1529.25
624.578	-1505.89
624.925	-1477.34
625.272	-1456.58
625.619	-1370.94
625.966	-1360.55
626.313	-1277.51
626.66	-1147.74
627.007	-1241.17
627.353	-1194.46
627.7	-1204.84
628.047	-1298.27
628.393	-1171.1
628.74	-1108.82
629.086	-1298.27
629.433	-1116.6
629.779	-1376.13
630.125	-1609.7
630.472	-1778.39
630.818	-2289.65
631.164	-2790.53
631.51	-3164.25
631.857	-2974.79
632.203	-2396.06
632.549	-1887.39
632.895	-1402.08
633.24	-1049.13
633.586	-802.58
633.932	-522.29
634.278	-338.03
634.624	-327.65
634.969	-301.7
635.315	-223.84
635.66	-317.27
636.006	-226.43
636.351	-293.91
636.697	-197.89
637.042	-158.96
637.388	-158.96
637.733	72.02
638.078	147.28
638.423	3850.69
638.768	6863.76
639.113	7240.07
639.458	8584.41
639.803	11662.36
640.148	7743.55
640.493	4810.93
640.838	3173.33
641.183	1836.78
641.527	920.66
641.872	295.21
642.217	-13.63
642.561	-55.15
642.906	-260.17
643.25	-135.6
643.595	-257.58
643.939	-257.58
644.284	-296.51
644.628	-130.41
644.972	-203.08
645.316	-280.93
645.66	-275.74
646.004	-278.34
646.348	-184.91
646.692	-242.01
647.036	-260.17
647.38	-257.58
647.724	-296.51
648.068	-234.22
648.412	-231.63
648.755	-322.46
649.099	-257.58
649.443	-242.01
649.786	-330.24
650.13	-436.65
650.473	-805.17
650.816	-1010.2
651.16	-1101.03
651.503	-984.24
651.846	-711.74
652.189	-605.34
652.533	-454.82
652.876	-483.36
653.219	-519.7
653.562	-506.72
653.905	-517.1
654.247	-465.2
654.59	-267.96
654.933	-317.27
655.276	-216.05
655.619	-296.51
655.961	-171.93
656.304	-213.46
656.646	-153.77
656.989	-229.03
657.331	-24.01
657.674	-319.86
658.016	-283.53
658.358	-229.03
658.701	-260.17
659.043	-330.24
659.385	-304.29
659.727	-174.53
660.069	-223.84
660.411	-208.27
660.753	-117.43
661.095	-135.6
661.437	-49.96
661.778	-216.05
662.12	-286.13
662.462	-444.43
662.804	-716.94
663.145	-714.34
663.487	-467.79
663.828	-506.72
664.17	-475.58
664.511	-452.22
664.852	-356.2
665.194	-358.79
665.535	-221.24
665.876	-205.67
666.217	-148.58
666.558	-187.51
666.899	-247.2
667.24	-210.86
667.581	-278.34
667.922	-221.24
668.263	-249.79
668.604	-296.51
668.944	-309.48
669.285	-244.6
669.626	-327.65
669.966	-218.65
670.307	-267.96
670.647	-153.77
670.988	-231.63
671.328	-174.53
671.669	-208.27
672.009	-244.6
672.349	-151.17
672.689	-143.39
673.029	-226.43
673.369	-78.51
673.71	-273.15
674.049	-164.15
674.389	-171.93
674.729	-208.27
675.069	-117.43
675.409	-73.32
675.749	-70.72
676.088	-49.96
676.428	-120.03
676.768	-151.17
677.107	-166.74
677.447	-205.67
677.786	-127.82
678.125	-164.15
678.465	-179.72
678.804	-182.32
679.143	-267.96
679.482	-210.86
679.821	-96.67
680.161	-153.77
680.5	-184.91
680.839	-125.22
681.177	-249.79
681.516	-47.36
681.855	-208.27
682.194	-96.67
682.533	-171.93
682.871	-171.93
683.21	-153.77
683.549	-161.55
683.887	-213.46
684.225	-195.29
684.564	-70.72
684.902	-127.82
685.241	-117.43
685.579	-18.82
685.917	-21.41
686.255	-179.72
686.593	-213.46
686.931	-254.98
687.269	-387.34
687.607	-519.7
687.945	-535.27
688.283	-574.2
688.621	-522.29
688.959	-392.53
689.296	-405.51
689.634	-278.34
689.972	-229.03
690.309	-120.03
690.647	-130.41
690.984	-197.89
691.322	-145.98
691.659	-47.36
691.996	-107.05
692.333	-44.77
692.671	-52.55
693.008	-125.22
693.345	-143.39
693.682	-249.79
694.019	-371.77
694.356	-358.79
694.693	-369.17
695.03	-265.36
695.366	-260.17
695.703	-171.93
696.04	-13.63
696.376	-179.72
696.713	-70.72
697.05	-94.08
697.386	-96.67
697.722	-78.51
698.059	-86.29
698.395	20.11
698.731	-16.22
699.068	-31.79
699.404	-13.63
699.74	-70.72
700.076	-57.74
700.412	-3.24
700.748	-57.74
701.084	51.26
701.42	-60.34
701.756	-86.29
702.091	-151.17
702.427	-18.82
702.763	-57.74
703.098	-31.79
703.434	-148.58
703.769	-205.67
704.105	-153.77
704.44	-143.39
704.776	-140.79
705.111	-179.72
705.446	-278.34
705.781	-382.15
706.117	-530.08
706.452	-631.29
706.787	-880.44
707.122	-1176.29
707.457	-1210.03
707.792	-1277.51
708.126	-1197.05
708.461	-1095.84
708.796	-1080.27
709.131	-1430.63
709.465	-1562.98
709.8	-1583.75
710.134	-1217.82
710.469	-1043.94
710.803	-789.6
711.138	-589.77
711.472	-610.53
711.806	-680.6
712.14	-859.67
712.475	-1194.46
712.809	-1272.32
713.143	-1150.34
713.477	-1051.72
713.811	-748.08
714.145	-561.22
714.479	-314.67
714.812	-257.58
715.146	-205.67
715.48	-114.84
715.814	-135.6
716.147	-114.84
716.481	-52.55
716.814	-0.65
717.148	4.54
717.481	30.49
717.814	-62.93
718.148	-151.17
718.481	-0.65
718.814	-29.2
719.147	77.21
719.48	-0.65
719.813	-200.48
720.146	-31.79
720.479	-47.36
720.812	95.38
721.145	-16.22
721.478	12.33
721.81	-47.36
722.143	1.95
722.476	43.47
722.808	-55.15
723.141	-70.72
723.473	-148.58
723.806	-0.65
724.138	30.49
724.47	-57.74
724.803	-62.93
725.135	-0.65
725.467	9.73
725.799	-21.41
726.131	-24.01
726.463	-104.46
726.795	9.73
727.127	4.54
727.459	35.68
727.791	-16.22
728.122	-11.03
728.454	66.83
728.786	-8.43
729.117	12.33
729.449	-81.1
729.78	-36.98
730.112	-24.01
730.443	-11.03
730.774	-73.32
731.106	-60.34
731.437	17.52
731.768	-86.29
732.099	-52.55
732.43	-11.03
732.761	-5.84
733.092	-73.32
733.423	-13.63
733.754	-0.65
734.085	9.73
734.416	22.71
734.746	-47.36
735.077	-68.13
735.407	14.92
735.738	-0.65
736.068	74.61
736.399	-65.53
736.729	-86.29
737.06	53.85
737.39	4.54
737.72	33.09
738.05	-47.36
738.38	4.54
738.71	-24.01
739.041	-29.2
739.37	38.28
739.7	-18.82
740.03	7.14
740.36	-21.41
740.69	-29.2
741.02	-57.74
741.349	40.88
741.679	14.92
742.008	-5.84
742.338	66.83
742.667	-60.34
742.997	-99.27
743.326	-86.29
743.655	48.66
743.984	7.14
744.314	-52.55
744.643	-133.01
744.972	-36.98
745.301	-107.05
745.63	-73.32
745.959	25.3
746.288	-34.39
746.616	-133.01
746.945	20.11
747.274	35.68
747.603	12.33
747.931	40.88
748.26	-18.82
748.588	92.78
748.917	48.66
749.245	-21.41
749.573	14.92
749.902	-13.63
750.23	-31.79
750.558	-13.63
750.886	-78.51
751.214	59.04
751.542	7.14
751.87	-21.41
752.198	-8.43
752.526	-55.15
752.854	-91.48
753.182	40.88
753.509	-62.93
753.837	22.71
754.165	35.68
754.492	33.09
754.82	4.54
755.147	-0.65
755.474	59.04
755.802	-29.2
756.129	110.95
756.456	84.99
756.783	-26.6
757.111	-11.03
757.438	-21.41
757.765	43.47
758.092	84.99
758.418	-18.82
758.745	-151.17
759.072	-26.6
759.399	-166.74
759.726	-187.51
760.052	-345.82
760.379	-475.58
760.705	-574.2
761.032	-395.13
761.358	-306.89
761.685	-309.48
762.011	-174.53
762.337	-88.89
762.663	-57.74
762.99	33.09
763.316	-39.58
763.642	25.3
763.968	59.04
764.294	-65.53
764.62	-75.91
764.946	-55.15
765.271	12.33
765.597	121.33
765.923	-91.48
766.248	-60.34
766.574	-34.39
766.9	14.92
767.225	27.9
767.55	27.9
767.876	-3.24
768.201	-13.63
768.526	-49.96
768.852	14.92
769.177	-18.82
769.502	-135.6
769.827	-65.53
770.152	-78.51
770.477	-65.53
770.802	-73.32
771.127	82.4
771.451	-31.79
771.776	-39.58
772.101	-0.65
772.425	-26.6
772.75	-21.41
773.075	40.88
773.399	46.07
773.723	-21.41
774.048	-70.72
774.372	-16.22
774.696	-0.65
775.02	-34.39
775.345	56.45
775.669	129.11
775.993	12.33
776.317	-5.84
776.641	-86.29
776.965	-49.96
777.288	74.61
777.612	-101.86
777.936	7.14
778.26	-5.84
778.583	33.09
778.907	1.95
779.23	-11.03
779.554	46.07
779.877	-39.58
780.2	20.11
780.524	-11.03
780.847	30.49
