Data from Subt2_19-09-13-997.txt Node
Date: Wed Feb 22 19:09:13 CST 2023
User: Optics Lab
Spectrometer: FLMS14302
Trigger mode: 0
Integration Time (sec): 1.000000E-1
Scans to average: 1
Electric dark correction enabled: true
Nonlinearity correction enabled: false
Boxcar width: 0
XAxis mode: Wavelengths
Number of Pixels in Spectrum: 2048
>>>>>Begin Spectral Data<<<<<
338.578	-12.65
338.961	-12.65
339.343	-12.65
339.725	34.06
340.108	93.75
340.49	-23.03
340.872	36.66
341.254	31.47
341.636	-59.37
342.018	5.51
342.4	-108.68
342.782	-12.65
343.164	62.61
343.546	5.51
343.928	60.01
344.309	18.49
344.691	-15.25
345.073	36.66
345.455	-64.56
345.836	-38.6
346.218	65.21
346.599	-2.27
346.981	49.63
347.362	47.04
347.744	-30.82
348.125	31.47
348.506	52.23
348.888	62.61
349.269	44.44
349.65	72.99
350.031	41.85
350.413	31.47
350.794	36.66
351.175	0.32
351.556	-4.87
351.937	-20.44
352.318	26.28
352.698	34.06
353.079	10.71
353.46	-43.79
353.841	-67.15
354.222	-74.94
354.602	-28.22
354.983	41.85
355.363	31.47
355.744	39.25
356.124	39.25
356.505	54.82
356.885	-36.01
357.266	-20.44
357.646	91.16
358.026	41.85
358.407	83.37
358.787	34.06
359.167	47.04
359.547	-72.34
359.927	109.32
360.307	-4.87
360.687	15.9
361.067	28.87
361.447	72.99
361.827	8.11
362.207	96.35
362.587	-7.46
362.966	47.04
363.346	5.51
363.726	117.11
364.105	31.47
364.485	39.25
364.865	60.01
365.244	101.54
365.624	13.3
366.003	31.47
366.382	-15.25
366.762	72.99
367.141	-41.2
367.52	36.66
367.899	10.71
368.279	-23.03
368.658	-41.2
369.037	47.04
369.416	-38.6
369.795	5.51
370.174	85.97
370.553	0.32
370.932	49.63
371.311	2.92
371.689	54.82
372.068	10.71
372.447	57.42
372.825	70.4
373.204	26.28
373.583	2.92
373.961	93.75
374.34	2.92
374.718	-116.46
375.097	80.78
375.475	72.99
375.853	52.23
376.232	62.61
376.61	34.06
376.988	88.56
377.366	-4.87
377.744	21.09
378.122	-15.25
378.5	-85.32
378.878	-12.65
379.256	49.63
379.634	-20.44
380.012	-43.79
380.39	8.11
380.768	-28.22
381.145	-20.44
381.523	15.9
381.901	75.59
382.278	-7.46
382.656	-2.27
383.033	-4.87
383.411	54.82
383.788	-100.89
384.166	-23.03
384.543	148.25
384.921	65.21
385.298	109.32
385.675	130.09
386.052	-2.27
386.429	-10.06
386.806	23.68
387.184	85.97
387.561	117.11
387.938	8.11
388.314	31.47
388.691	-67.15
389.068	127.49
389.445	13.3
389.822	-59.37
390.198	31.47
390.575	8.11
390.952	-48.99
391.328	-33.41
391.705	67.8
392.081	-4.87
392.458	13.3
392.834	62.61
393.211	67.8
393.587	-38.6
393.963	-100.89
394.34	-41.2
394.716	67.8
395.092	34.06
395.468	41.85
395.844	-48.99
396.22	57.42
396.596	65.21
396.972	-17.84
397.348	-30.82
397.724	44.44
398.1	-17.84
398.476	106.73
398.851	21.09
399.227	-20.44
399.603	49.63
399.978	18.49
400.354	39.25
400.729	10.71
401.105	57.42
401.48	10.71
401.856	-30.82
402.231	23.68
402.606	5.51
402.982	49.63
403.357	-10.06
403.732	-72.34
404.107	49.63
404.482	-2.27
404.857	70.4
405.232	26.28
405.607	150.85
405.982	-30.82
406.357	5.51
406.732	8.11
407.107	-12.65
407.482	-7.46
407.856	-46.39
408.231	23.68
408.606	18.49
408.98	2.92
409.355	70.4
409.729	34.06
410.104	-10.06
410.478	34.06
410.852	5.51
411.227	28.87
411.601	13.3
411.975	-15.25
412.35	26.28
412.724	-23.03
413.098	39.25
413.472	122.3
413.846	-85.32
414.22	49.63
414.594	-41.2
414.968	-43.79
415.342	-33.41
415.715	2.92
416.089	-7.46
416.463	-4.87
416.837	-20.44
417.21	28.87
417.584	-4.87
417.957	52.23
418.331	8.11
418.704	47.04
419.078	85.97
419.451	85.97
419.824	26.28
420.198	31.47
420.571	-12.65
420.944	36.66
421.317	-38.6
421.69	122.3
422.064	-4.87
422.437	10.71
422.81	-23.03
423.182	47.04
423.555	93.75
423.928	65.21
424.301	-10.06
424.674	34.06
425.047	-95.7
425.419	5.51
425.792	52.23
426.164	-10.06
426.537	-36.01
426.91	0.32
427.282	60.01
427.654	-67.15
428.027	41.85
428.399	49.63
428.771	47.04
429.144	62.61
429.516	80.78
429.888	-41.2
430.26	10.71
430.632	-28.22
431.004	-4.87
431.376	62.61
431.748	52.23
432.12	-4.87
432.492	-4.87
432.864	23.68
433.236	-20.44
433.607	-77.53
433.979	-90.51
434.351	60.01
434.722	83.37
435.094	93.75
435.465	49.63
435.837	104.13
436.208	166.42
436.58	290.99
436.951	145.66
437.322	124.9
437.693	-10.06
438.065	26.28
438.436	52.23
438.807	93.75
439.178	67.8
439.549	-10.06
439.92	65.21
440.291	21.09
440.662	-15.25
441.033	137.87
441.403	88.56
441.774	-20.44
442.145	93.75
442.516	-7.46
442.886	130.09
443.257	127.49
443.627	31.47
443.998	72.99
444.368	-61.96
444.739	80.78
445.109	72.99
445.479	62.61
445.85	62.61
446.22	-25.63
446.59	93.75
446.96	207.94
447.33	41.85
447.7	114.51
448.07	39.25
448.44	150.85
448.81	57.42
449.18	104.13
449.55	98.94
449.92	57.42
450.29	-28.22
450.659	-28.22
451.029	88.56
451.399	117.11
451.768	65.21
452.138	57.42
452.507	80.78
452.877	80.78
453.246	124.9
453.615	135.28
453.985	60.01
454.354	192.37
454.723	124.9
455.092	83.37
455.462	78.18
455.831	124.9
456.2	137.87
456.569	161.23
456.938	98.94
457.307	132.68
457.675	228.71
458.044	145.66
458.413	189.78
458.782	226.11
459.15	145.66
459.519	176.8
459.888	57.42
460.256	104.13
460.625	156.04
460.993	135.28
461.362	67.8
461.73	91.16
462.098	93.75
462.467	67.8
462.835	135.28
463.203	169.02
463.571	145.66
463.939	41.85
464.307	132.68
464.675	176.8
465.043	150.85
465.411	93.75
465.779	150.85
466.147	202.75
466.515	72.99
466.883	174.21
467.25	176.8
467.618	189.78
467.986	163.82
468.353	135.28
468.721	41.85
469.088	88.56
469.456	88.56
469.823	169.02
470.19	124.9
470.558	218.32
470.925	65.21
471.292	127.49
471.659	150.85
472.027	166.42
472.394	207.94
472.761	156.04
473.128	140.47
473.495	189.78
473.862	67.8
474.228	104.13
474.595	52.23
474.962	122.3
475.329	202.75
475.695	111.92
476.062	5.51
476.429	93.75
476.795	111.92
477.162	106.73
477.528	88.56
477.895	70.4
478.261	67.8
478.627	150.85
478.994	41.85
479.36	28.87
479.726	67.8
480.092	101.54
480.458	39.25
480.824	98.94
481.19	-46.39
481.556	39.25
481.922	26.28
482.288	67.8
482.654	169.02
483.02	101.54
483.385	150.85
483.751	101.54
484.117	122.3
484.482	57.42
484.848	176.8
485.213	137.87
485.579	140.47
485.944	31.47
486.31	23.68
486.675	62.61
487.04	111.92
487.406	205.35
487.771	145.66
488.136	163.82
488.501	93.75
488.866	104.13
489.231	158.63
489.596	62.61
489.961	135.28
490.326	145.66
490.691	104.13
491.056	132.68
491.42	176.8
491.785	124.9
492.15	114.51
492.514	156.04
492.879	163.82
493.243	88.56
493.608	124.9
493.972	124.9
494.337	176.8
494.701	57.42
495.065	111.92
495.43	93.75
495.794	72.99
496.158	83.37
496.522	80.78
496.886	31.47
497.25	57.42
497.614	62.61
497.978	156.04
498.342	137.87
498.706	72.99
499.07	96.35
499.433	52.23
499.797	104.13
500.161	70.4
500.524	135.28
500.888	75.59
501.251	119.71
501.615	156.04
501.978	80.78
502.342	5.51
502.705	202.75
503.068	153.44
503.432	114.51
503.795	88.56
504.158	215.73
504.521	117.11
504.884	197.56
505.247	57.42
505.61	49.63
505.973	145.66
506.336	194.97
506.699	83.37
507.062	117.11
507.424	132.68
507.787	52.23
508.15	124.9
508.512	104.13
508.875	85.97
509.238	85.97
509.6	176.8
509.962	114.51
510.325	104.13
510.687	36.66
511.049	-10.06
511.412	244.28
511.774	-30.82
512.136	83.37
512.498	143.06
512.86	98.94
513.222	2.92
513.584	83.37
513.946	10.71
514.308	13.3
514.67	137.87
515.032	153.44
515.393	161.23
515.755	145.66
516.117	39.25
516.478	101.54
516.84	153.44
517.201	153.44
517.563	135.28
517.924	111.92
518.286	54.82
518.647	47.04
519.008	62.61
519.37	36.66
519.731	109.32
520.092	0.32
520.453	101.54
520.814	57.42
521.175	231.3
521.536	169.02
521.897	233.9
522.258	104.13
522.619	143.06
522.979	122.3
523.34	117.11
523.701	65.21
524.061	114.51
524.422	153.44
524.783	111.92
525.143	119.71
525.504	101.54
525.864	62.61
526.224	41.85
526.585	36.66
526.945	106.73
527.305	-28.22
527.665	114.51
528.025	114.51
528.385	101.54
528.746	83.37
529.106	106.73
529.465	98.94
529.825	176.8
530.185	85.97
530.545	31.47
530.905	184.59
531.264	220.92
531.624	72.99
531.984	163.82
532.343	83.37
532.703	67.8
533.062	47.04
533.422	171.61
533.781	143.06
534.141	150.85
534.5	23.68
534.859	189.78
535.218	122.3
535.577	109.32
535.937	111.92
536.296	52.23
536.655	93.75
537.014	111.92
537.373	200.16
537.731	72.99
538.09	145.66
538.449	130.09
538.808	169.02
539.166	78.18
539.525	135.28
539.884	213.13
540.242	91.16
540.601	213.13
540.959	174.21
541.318	109.32
541.676	241.68
542.034	290.99
542.393	449.3
542.751	415.56
543.109	563.49
543.467	480.44
543.825	425.94
544.183	366.25
544.541	431.13
544.899	493.42
545.257	454.49
545.615	394.8
545.973	506.4
546.331	345.49
546.688	387.02
547.046	389.61
547.404	254.66
547.761	200.16
548.119	163.82
548.476	213.13
548.834	174.21
549.191	231.3
549.548	189.78
549.906	220.92
550.263	111.92
550.62	184.59
550.977	226.11
551.334	249.47
551.691	197.56
552.048	140.47
552.405	106.73
552.762	161.23
553.119	88.56
553.476	140.47
553.833	122.3
554.189	140.47
554.546	127.49
554.903	39.25
555.259	127.49
555.616	119.71
555.972	111.92
556.329	135.28
556.685	62.61
557.042	104.13
557.398	106.73
557.754	47.04
558.11	-25.63
558.467	119.71
558.823	104.13
559.179	80.78
559.535	-12.65
559.891	80.78
560.247	13.3
560.603	-4.87
560.958	31.47
561.314	44.44
561.67	96.35
562.026	93.75
562.381	85.97
562.737	124.9
563.092	143.06
563.448	127.49
563.803	93.75
564.159	117.11
564.514	78.18
564.869	65.21
565.225	127.49
565.58	-15.25
565.935	130.09
566.29	91.16
566.645	57.42
567	117.11
567.355	106.73
567.71	158.63
568.065	62.61
568.42	2.92
568.775	65.21
569.13	26.28
569.484	60.01
569.839	10.71
570.193	31.47
570.548	44.44
570.903	39.25
571.257	124.9
571.611	62.61
571.966	109.32
572.32	28.87
572.674	75.59
573.029	15.9
573.383	21.09
573.737	-28.22
574.091	57.42
574.445	187.18
574.799	96.35
575.153	31.47
575.507	117.11
575.861	60.01
576.215	124.9
576.568	114.51
576.922	57.42
577.276	0.32
577.629	28.87
577.983	109.32
578.336	47.04
578.69	-7.46
579.043	166.42
579.397	179.4
579.75	65.21
580.103	18.49
580.456	85.97
580.81	93.75
581.163	-7.46
581.516	98.94
581.869	-10.06
582.222	114.51
582.575	47.04
582.928	67.8
583.281	210.54
583.633	36.66
583.986	21.09
584.339	85.97
584.691	-28.22
585.044	-72.34
585.397	80.78
585.749	104.13
586.102	78.18
586.454	31.47
586.806	47.04
587.159	-54.18
587.511	-150.2
587.863	-2.27
588.215	-15.25
588.567	49.63
588.92	-41.2
589.272	-48.99
589.624	10.71
589.975	-54.18
590.327	-103.49
590.679	-108.68
591.031	-126.84
591.383	-72.34
591.734	-191.72
592.086	31.47
592.438	-168.37
592.789	-186.53
593.141	-264.39
593.492	-241.03
593.844	-295.53
594.195	-194.32
594.546	-202.1
594.898	-261.79
595.249	-202.1
595.6	-43.79
595.951	-147.6
596.302	-95.7
596.653	-142.41
597.004	-111.27
597.355	-106.08
597.706	-80.13
598.057	-173.56
598.408	-150.2
598.758	-186.53
599.109	-311.1
599.46	-383.77
599.81	-375.99
600.161	-381.18
600.511	-440.87
600.862	-285.15
601.212	-295.53
601.562	-337.06
601.913	-251.41
602.263	-142.41
602.613	-204.7
602.963	-137.22
603.313	-183.94
603.663	-145.01
604.013	-183.94
604.363	-212.49
604.713	-233.25
605.063	-222.87
605.413	-279.96
605.763	-305.91
606.112	-308.51
606.462	-308.51
606.812	-313.7
607.161	-451.25
607.511	-396.75
607.86	-583.6
608.21	-648.49
608.559	-682.22
608.908	-941.75
609.258	-1276.53
609.607	-1419.27
609.956	-2197.84
610.305	-3230.75
610.654	-5501.58
611.003	-9648.78
611.352	-14738.04
611.701	-18041.78
612.05	-17265.81
612.399	-14943.07
612.748	-11883.28
613.097	-9503.44
613.445	-7899.59
613.794	-6391.75
614.143	-5872.7
614.491	-5348.47
614.84	-5026.66
615.188	-4712.63
615.537	-4287.01
615.885	-3653.77
616.233	-2932.3
616.581	-2579.34
616.93	-2205.63
617.278	-1940.92
617.626	-1754.06
617.974	-1611.32
618.322	-1377.75
618.67	-1491.94
619.018	-1458.2
619.366	-1536.06
619.714	-1538.65
620.061	-1600.94
620.409	-1756.65
620.757	-1709.94
621.104	-1914.96
621.452	-1894.2
621.799	-1642.46
622.147	-1855.27
622.494	-1660.63
622.842	-1663.22
623.189	-1580.18
623.536	-1455.61
623.884	-1468.58
624.231	-1385.53
624.578	-1427.06
624.925	-1510.11
625.272	-1406.3
625.619	-1346.61
625.966	-1273.94
626.313	-1076.7
626.66	-1097.46
627.007	-1227.22
627.353	-1198.68
627.7	-1201.27
628.047	-1242.8
628.393	-1141.58
628.74	-1113.03
629.086	-1154.56
629.433	-1146.77
629.779	-1315.46
630.125	-1478.96
630.472	-1728.11
630.818	-2200.44
631.164	-2820.7
631.51	-3033.51
631.857	-2966.03
632.203	-2384.7
632.549	-1837.11
632.895	-1338.82
633.24	-905.41
633.586	-739.32
633.932	-479.79
634.278	-363.01
634.624	-363.01
634.969	-344.84
635.315	-145.01
635.66	-248.82
636.006	-264.39
636.351	-176.15
636.697	-181.34
637.042	-56.77
637.388	-139.82
637.733	54.82
638.078	52.23
638.423	2977.06
638.768	4918.3
639.113	4700.3
639.458	5530.78
639.803	7573.23
640.148	5214.16
640.493	3304.06
640.838	1951.94
641.183	1196.73
641.527	651.73
641.872	340.3
642.217	-38.6
642.561	-41.2
642.906	-165.77
643.25	-113.87
643.595	-147.6
643.939	-279.96
644.284	-222.87
644.628	-186.53
644.972	-119.06
645.316	-261.79
645.66	-202.1
646.004	-256.6
646.348	-207.29
646.692	-142.41
647.036	-186.53
647.38	-147.6
647.724	-285.15
648.068	-207.29
648.412	-274.77
648.755	-243.63
649.099	-274.77
649.443	-215.08
649.786	-311.1
650.13	-427.89
650.473	-739.32
650.816	-952.13
651.16	-998.84
651.503	-933.96
651.846	-731.53
652.189	-614.75
652.533	-472.01
652.876	-427.89
653.219	-440.87
653.562	-422.7
653.905	-381.18
654.247	-375.99
654.59	-339.65
654.933	-287.75
655.276	-251.41
655.619	-196.91
655.961	-100.89
656.304	-155.39
656.646	-129.44
656.989	-168.37
657.331	-36.01
657.674	-225.46
658.016	-248.82
658.358	-225.46
658.701	-233.25
659.043	-204.7
659.385	-277.37
659.727	-124.25
660.069	-222.87
660.411	-189.13
660.753	-48.99
661.095	-85.32
661.437	-46.39
661.778	-246.22
662.12	-326.68
662.462	-414.91
662.804	-643.3
663.145	-625.13
663.487	-482.39
663.828	-422.7
664.17	-430.49
664.511	-440.87
664.852	-305.91
665.194	-381.18
665.535	-183.94
665.876	-142.41
666.217	-121.65
666.558	-220.27
666.899	-264.39
667.24	-202.1
667.581	-235.84
667.922	-160.58
668.263	-173.56
668.604	-261.79
668.944	-256.6
669.285	-228.06
669.626	-324.08
669.966	-150.2
670.307	-266.99
670.647	-157.99
670.988	-129.44
671.328	-152.79
671.669	-194.32
672.009	-238.44
672.349	-116.46
672.689	-106.08
673.029	-209.89
673.369	-74.94
673.71	-155.39
674.049	-98.29
674.389	-204.7
674.729	-204.7
675.069	-119.06
675.409	-20.44
675.749	-100.89
676.088	-77.53
676.428	-157.99
676.768	-142.41
677.107	-186.53
677.447	-178.75
677.786	-111.27
678.125	-165.77
678.465	-134.63
678.804	-108.68
679.143	-279.96
679.482	-191.72
679.821	-108.68
680.161	-145.01
680.5	-163.18
680.839	-145.01
681.177	-209.89
681.516	-132.03
681.855	-124.25
682.194	-69.75
682.533	-196.91
682.871	-189.13
683.21	-61.96
683.549	-82.72
683.887	-100.89
684.225	-15.25
684.564	-77.53
684.902	-145.01
685.241	-30.82
685.579	-61.96
685.917	-38.6
686.255	-142.41
686.593	-207.29
686.931	-170.96
687.269	-311.1
687.607	-487.58
687.945	-438.27
688.283	-420.1
688.621	-578.41
688.959	-430.49
689.296	-342.25
689.634	-259.2
689.972	-235.84
690.309	-80.13
690.647	-111.27
690.984	-186.53
691.322	-103.49
691.659	-108.68
691.996	-46.39
692.333	13.3
692.671	-36.01
693.008	-212.49
693.345	-90.51
693.682	-308.51
694.019	-363.01
694.356	-318.89
694.693	-324.08
695.03	-269.58
695.366	-292.94
695.703	-181.34
696.04	-38.6
696.376	-168.37
696.713	-170.96
697.05	-106.08
697.386	-111.27
697.722	-2.27
698.059	-33.41
698.395	44.44
698.731	-54.18
699.068	-80.13
699.404	-46.39
699.74	-85.32
700.076	-30.82
700.412	-10.06
700.748	-20.44
701.084	-80.13
701.42	-15.25
701.756	-36.01
702.091	-30.82
702.427	-61.96
702.763	-103.49
703.098	-116.46
703.434	-74.94
703.769	-51.58
704.105	-145.01
704.44	-82.72
704.776	-145.01
705.111	-220.27
705.446	-279.96
705.781	-420.1
706.117	-549.87
706.452	-627.72
706.787	-801.6
707.122	-1193.49
707.457	-1138.99
707.792	-1292.11
708.126	-1227.22
708.461	-1055.94
708.796	-1167.53
709.131	-1375.15
709.465	-1569.8
709.8	-1603.53
710.134	-1198.68
710.469	-931.37
710.803	-677.03
711.138	-622.53
711.472	-490.18
711.806	-609.56
712.14	-809.39
712.475	-1113.03
712.809	-1245.39
713.143	-1219.44
713.477	-1061.13
713.811	-690.01
714.145	-604.37
714.479	-456.44
714.812	-303.32
715.146	-183.94
715.48	-64.56
715.814	-145.01
716.147	-20.44
716.481	-43.79
716.814	-51.58
717.148	-10.06
717.481	62.61
717.814	0.32
718.148	-137.22
718.481	-46.39
718.814	52.23
719.147	-30.82
719.48	-113.87
719.813	-181.34
720.146	-33.41
720.479	-46.39
720.812	-51.58
721.145	-56.77
721.478	44.44
721.81	-33.41
722.143	75.59
722.476	52.23
722.808	-12.65
723.141	-157.99
723.473	-95.7
723.806	15.9
724.138	83.37
724.47	-41.2
724.803	13.3
725.135	-30.82
725.467	-12.65
725.799	5.51
726.131	-10.06
726.463	-173.56
726.795	15.9
727.127	57.42
727.459	96.35
727.791	-36.01
728.122	-56.77
728.454	91.16
728.786	-28.22
729.117	-23.03
729.449	-38.6
729.78	-54.18
730.112	5.51
730.443	26.28
730.774	13.3
731.106	28.87
731.437	85.97
731.768	13.3
732.099	-28.22
732.43	0.32
732.761	-80.13
733.092	-33.41
733.423	-10.06
733.754	31.47
734.085	-20.44
734.416	5.51
734.746	78.18
735.077	-51.58
735.407	-61.96
735.738	-36.01
736.068	34.06
736.399	-2.27
736.729	26.28
737.06	57.42
737.39	8.11
737.72	28.87
738.05	-25.63
738.38	49.63
738.71	39.25
739.041	10.71
739.37	-25.63
739.7	-74.94
740.03	0.32
740.36	-10.06
740.69	41.85
741.02	8.11
741.349	23.68
741.679	57.42
742.008	57.42
742.338	41.85
742.667	-25.63
742.997	-61.96
743.326	2.92
743.655	13.3
743.984	31.47
744.314	-33.41
744.643	-61.96
744.972	-28.22
745.301	-103.49
745.63	-103.49
745.959	31.47
746.288	-150.2
746.616	-28.22
746.945	47.04
747.274	0.32
747.603	47.04
747.931	23.68
748.26	-33.41
748.588	101.54
748.917	47.04
749.245	-28.22
749.573	-2.27
749.902	0.32
750.23	15.9
750.558	49.63
750.886	23.68
751.214	83.37
751.542	-46.39
751.87	-7.46
752.198	34.06
752.526	8.11
752.854	-30.82
753.182	34.06
753.509	15.9
753.837	65.21
754.165	98.94
754.492	-108.68
754.82	-17.84
755.147	96.35
755.474	18.49
755.802	-54.18
756.129	13.3
756.456	47.04
756.783	21.09
757.111	36.66
757.438	-7.46
757.765	78.18
758.092	91.16
758.418	-4.87
758.745	-142.41
759.072	-77.53
759.399	-168.37
759.726	-256.6
760.052	-381.18
760.379	-466.82
760.705	-588.8
761.032	-433.08
761.358	-318.89
761.685	-279.96
762.011	-139.82
762.337	-80.13
762.663	-59.37
762.99	-4.87
763.316	31.47
763.642	-7.46
763.968	8.11
764.294	-54.18
764.62	-54.18
764.946	-77.53
765.271	75.59
765.597	153.44
765.923	-59.37
766.248	-2.27
766.574	-28.22
766.9	5.51
767.225	65.21
767.55	39.25
767.876	41.85
768.201	67.8
768.526	85.97
768.852	54.82
769.177	13.3
769.502	15.9
769.827	-28.22
770.152	-10.06
770.477	-142.41
770.802	-51.58
771.127	106.73
771.451	-12.65
771.776	-51.58
772.101	18.49
772.425	-15.25
772.75	31.47
773.075	-38.6
773.399	10.71
773.723	-25.63
774.048	44.44
774.372	26.28
774.696	-36.01
775.02	26.28
775.345	23.68
775.669	15.9
775.993	-17.84
776.317	2.92
776.641	75.59
776.965	-20.44
777.288	60.01
777.612	-48.99
777.936	34.06
778.26	-54.18
778.583	62.61
778.907	52.23
779.23	0.32
779.554	-59.37
779.877	31.47
780.2	-41.2
780.524	-56.77
780.847	36.66
