Data from Subt2_19-10-09-395.txt Node
Date: Wed Feb 22 19:10:09 CST 2023
User: Optics Lab
Spectrometer: FLMS14302
Trigger mode: 0
Integration Time (sec): 1.000000E-1
Scans to average: 1
Electric dark correction enabled: true
Nonlinearity correction enabled: false
Boxcar width: 0
XAxis mode: Wavelengths
Number of Pixels in Spectrum: 2048
>>>>>Begin Spectral Data<<<<<
338.578	-33.58
338.961	-33.58
339.343	-33.58
339.725	33.9
340.108	65.04
340.49	-10.22
340.872	0.16
341.254	18.33
341.636	-43.96
342.018	28.71
342.4	-69.91
342.782	20.92
343.164	-20.6
343.546	10.54
343.928	0.16
344.309	-7.62
344.691	13.14
345.073	72.83
345.455	46.88
345.836	-41.36
346.218	-18
346.599	18.33
346.981	-10.22
347.362	26.11
347.744	-93.27
348.125	18.33
348.506	31.31
348.888	-7.62
349.269	187.02
349.65	-23.19
350.031	10.54
350.413	-20.6
350.794	49.47
351.175	31.31
351.556	-41.36
351.937	-36.17
352.318	-12.81
352.698	-25.79
353.079	41.69
353.46	-69.91
353.841	-30.98
354.222	0.16
354.602	-25.79
354.983	-10.22
355.363	-12.81
355.744	-20.6
356.124	67.64
356.505	52.07
356.885	2.76
357.266	26.11
357.646	72.83
358.026	0.16
358.407	88.4
358.787	59.85
359.167	-18
359.547	-90.67
359.927	65.04
360.307	-103.65
360.687	-20.6
361.067	70.23
361.447	-7.62
361.827	7.95
362.207	33.9
362.587	-90.67
362.966	15.73
363.346	7.95
363.726	62.45
364.105	-28.39
364.485	39.09
364.865	31.31
365.244	-5.03
365.624	7.95
366.003	28.71
366.382	46.88
366.762	18.33
367.141	-30.98
367.52	5.35
367.899	-67.31
368.279	80.61
368.658	-15.41
369.037	20.92
369.416	-33.58
369.795	-15.41
370.174	10.54
370.553	49.47
370.932	2.76
371.311	-56.93
371.689	7.95
372.068	-20.6
372.447	93.59
372.825	-38.77
373.204	2.76
373.583	20.92
373.961	65.04
374.34	83.21
374.718	-33.58
375.097	2.76
375.475	20.92
375.853	2.76
376.232	-15.41
376.61	0.16
376.988	23.52
377.366	-2.43
377.744	13.14
378.122	2.76
378.5	-75.1
378.878	44.28
379.256	-41.36
379.634	28.71
380.012	2.76
380.39	-25.79
380.768	-33.58
381.145	-12.81
381.523	20.92
381.901	54.66
382.278	54.66
382.656	0.16
383.033	10.54
383.411	65.04
383.788	-64.72
384.166	-85.48
384.543	46.88
384.921	-28.39
385.298	116.95
385.675	0.16
386.052	-67.31
386.429	23.52
386.806	44.28
387.184	13.14
387.561	103.97
387.938	-69.91
388.314	44.28
388.691	-49.15
389.068	54.66
389.445	-23.19
389.822	-38.77
390.198	18.33
390.575	-33.58
390.952	28.71
391.328	-20.6
391.705	-7.62
392.081	10.54
392.458	-30.98
392.834	52.07
393.211	59.85
393.587	18.33
393.963	-43.96
394.34	-67.31
394.716	13.14
395.092	98.78
395.468	5.35
395.844	-72.5
396.22	75.42
396.596	2.76
396.972	-46.55
397.348	-59.53
397.724	18.33
398.1	-28.39
398.476	39.09
398.851	2.76
399.227	-85.48
399.603	5.35
399.978	59.85
400.354	31.31
400.729	49.47
401.105	26.11
401.48	20.92
401.856	-62.12
402.231	57.26
402.606	-56.93
402.982	-2.43
403.357	-20.6
403.732	-7.62
404.107	52.07
404.482	46.88
404.857	57.26
405.232	23.52
405.607	33.9
405.982	59.85
406.357	-5.03
406.732	-23.19
407.107	-43.96
407.482	-54.34
407.856	-10.22
408.231	-23.19
408.606	67.64
408.98	-15.41
409.355	41.69
409.729	-38.77
410.104	83.21
410.478	70.23
410.852	23.52
411.227	-30.98
411.601	-2.43
411.975	5.35
412.35	72.83
412.724	-147.77
413.098	-46.55
413.472	98.78
413.846	-62.12
414.22	20.92
414.594	31.31
414.968	7.95
415.342	-7.62
415.715	-20.6
416.089	72.83
416.463	-59.53
416.837	-41.36
417.21	33.9
417.584	-51.74
417.957	36.5
418.331	18.33
418.704	52.07
419.078	96.19
419.451	65.04
419.824	54.66
420.198	20.92
420.571	13.14
420.944	54.66
421.317	7.95
421.69	28.71
422.064	-46.55
422.437	-33.58
422.81	-28.39
423.182	15.73
423.555	67.64
423.928	39.09
424.301	26.11
424.674	23.52
425.047	2.76
425.419	-25.79
425.792	31.31
426.164	28.71
426.537	-106.24
426.91	-38.77
427.282	41.69
427.654	-23.19
428.027	78.02
428.399	5.35
428.771	-7.62
429.144	13.14
429.516	31.31
429.888	-12.81
430.26	36.5
430.632	-163.34
431.004	59.85
431.376	54.66
431.748	52.07
432.12	-12.81
432.492	2.76
432.864	41.69
433.236	-137.39
433.607	-85.48
433.979	-67.31
434.351	18.33
434.722	-25.79
435.094	31.31
435.465	46.88
435.837	65.04
436.208	109.16
436.58	194.81
436.951	39.09
437.322	20.92
437.693	28.71
438.065	18.33
438.436	10.54
438.807	15.73
439.178	33.9
439.549	-67.31
439.92	36.5
440.291	-18
440.662	-38.77
441.033	80.61
441.403	54.66
441.774	70.23
442.145	91
442.516	75.42
442.886	46.88
443.257	85.81
443.627	-10.22
443.998	0.16
444.368	13.14
444.739	-30.98
445.109	70.23
445.479	-49.15
445.85	44.28
446.22	-69.91
446.59	-18
446.96	83.21
447.33	70.23
447.7	106.57
448.07	127.33
448.44	2.76
448.81	15.73
449.18	46.88
449.55	54.66
449.92	-23.19
450.29	-59.53
450.659	-7.62
451.029	15.73
451.399	59.85
451.768	36.5
452.138	59.85
452.507	2.76
452.877	65.04
453.246	114.35
453.615	54.66
453.985	62.45
454.354	101.38
454.723	44.28
455.092	93.59
455.462	-23.19
455.831	44.28
456.2	145.5
456.569	122.14
456.938	135.11
457.307	67.64
457.675	85.81
458.044	109.16
458.413	176.64
458.782	85.81
459.15	119.54
459.519	111.76
459.888	98.78
460.256	52.07
460.625	59.85
460.993	-15.41
461.362	-25.79
461.73	75.42
462.098	10.54
462.467	135.11
462.835	85.81
463.203	184.42
463.571	65.04
463.939	13.14
464.307	75.42
464.675	65.04
465.043	150.69
465.411	65.04
465.779	59.85
466.147	91
466.515	96.19
466.883	54.66
467.25	241.52
467.618	161.07
467.986	5.35
468.353	158.47
468.721	65.04
469.088	13.14
469.456	101.38
469.823	111.76
470.19	85.81
470.558	137.71
470.925	85.81
471.292	31.31
471.659	145.5
472.027	106.57
472.394	39.09
472.761	106.57
473.128	67.64
473.495	75.42
473.862	49.47
474.228	93.59
474.595	54.66
474.962	184.42
475.329	91
475.695	83.21
476.062	67.64
476.429	85.81
476.795	135.11
477.162	26.11
477.528	7.95
477.895	-2.43
478.261	54.66
478.627	91
478.994	70.23
479.36	57.26
479.726	5.35
480.092	127.33
480.458	62.45
480.824	93.59
481.19	-41.36
481.556	80.61
481.922	101.38
482.288	111.76
482.654	85.81
483.02	44.28
483.385	88.4
483.751	62.45
484.117	57.26
484.482	-12.81
484.848	75.42
485.213	44.28
485.579	122.14
485.944	15.73
486.31	31.31
486.675	96.19
487.04	75.42
487.406	135.11
487.771	119.54
488.136	49.47
488.501	49.47
488.866	44.28
489.231	145.5
489.596	46.88
489.961	197.4
490.326	57.26
490.691	18.33
491.056	59.85
491.42	41.69
491.785	67.64
492.15	36.5
492.514	36.5
492.879	10.54
493.243	98.78
493.608	96.19
493.972	15.73
494.337	83.21
494.701	49.47
495.065	-15.41
495.43	-12.81
495.794	26.11
496.158	28.71
496.522	5.35
496.886	-20.6
497.25	36.5
497.614	-51.74
497.978	109.16
498.342	-2.43
498.706	57.26
499.07	166.26
499.433	44.28
499.797	26.11
500.161	36.5
500.524	33.9
500.888	-7.62
501.251	54.66
501.615	124.73
501.978	80.61
502.342	80.61
502.705	111.76
503.068	96.19
503.432	62.45
503.795	10.54
504.158	72.83
504.521	129.92
504.884	137.71
505.247	62.45
505.61	65.04
505.973	168.85
506.336	62.45
506.699	2.76
507.062	101.38
507.424	142.9
507.787	28.71
508.15	-7.62
508.512	168.85
508.875	0.16
509.238	150.69
509.6	36.5
509.962	-12.81
510.325	18.33
510.687	52.07
511.049	-33.58
511.412	88.4
511.774	-41.36
512.136	93.59
512.498	33.9
512.86	161.07
513.222	-49.15
513.584	41.69
513.946	-49.15
514.308	-59.53
514.67	44.28
515.032	70.23
515.393	52.07
515.755	142.9
516.117	59.85
516.478	111.76
516.84	62.45
517.201	103.97
517.563	98.78
517.924	103.97
518.286	93.59
518.647	28.71
519.008	44.28
519.37	62.45
519.731	111.76
520.092	-46.55
520.453	83.21
520.814	-12.81
521.175	207.78
521.536	140.31
521.897	192.21
522.258	96.19
522.619	103.97
522.979	122.14
523.34	103.97
523.701	80.61
524.061	116.95
524.422	72.83
524.783	129.92
525.143	41.69
525.504	5.35
525.864	106.57
526.224	-2.43
526.585	41.69
526.945	150.69
527.305	23.52
527.665	54.66
528.025	135.11
528.385	80.61
528.746	2.76
529.106	174.04
529.465	132.52
529.825	124.73
530.185	-20.6
530.545	-38.77
530.905	129.92
531.264	135.11
531.624	26.11
531.984	91
532.343	7.95
532.703	41.69
533.062	0.16
533.422	65.04
533.781	5.35
534.141	0.16
534.5	23.52
534.859	129.92
535.218	80.61
535.577	67.64
535.937	70.23
536.296	91
536.655	85.81
537.014	129.92
537.373	96.19
537.731	78.02
538.09	67.64
538.449	-23.19
538.808	85.81
539.166	-23.19
539.525	103.97
539.884	36.5
540.242	0.16
540.601	44.28
540.959	0.16
541.318	-43.96
541.676	-33.58
542.034	28.71
542.393	-7.62
542.751	-12.81
543.109	-155.55
543.467	-93.27
543.825	-41.36
544.183	-59.53
544.541	-5.03
544.899	72.83
545.257	-33.58
545.615	-56.93
545.973	18.33
546.331	-116.62
546.688	0.16
547.046	-108.84
547.404	-30.98
547.761	31.31
548.119	-51.74
548.476	88.4
548.834	44.28
549.191	15.73
549.548	-2.43
549.906	103.97
550.263	-54.34
550.62	54.66
550.977	41.69
551.334	-30.98
551.691	-41.36
552.048	41.69
552.405	127.33
552.762	137.71
553.119	49.47
553.476	91
553.833	20.92
554.189	54.66
554.546	96.19
554.903	26.11
555.259	57.26
555.616	39.09
555.972	91
556.329	-43.96
556.685	-5.03
557.042	-59.53
557.398	67.64
557.754	67.64
558.11	-10.22
558.467	142.9
558.823	39.09
559.179	36.5
559.535	98.78
559.891	39.09
560.247	-5.03
560.603	93.59
560.958	-25.79
561.314	18.33
561.67	72.83
562.026	7.95
562.381	49.47
562.737	101.38
563.092	36.5
563.448	39.09
563.803	20.92
564.159	10.54
564.514	15.73
564.869	28.71
565.225	114.35
565.58	59.85
565.935	26.11
566.29	93.59
566.645	78.02
567	101.38
567.355	31.31
567.71	85.81
568.065	49.47
568.42	13.14
568.775	109.16
569.13	93.59
569.484	-28.39
569.839	-51.74
570.193	-28.39
570.548	36.5
570.903	124.73
571.257	85.81
571.611	88.4
571.966	80.61
572.32	0.16
572.674	20.92
573.029	-2.43
573.383	98.78
573.737	5.35
574.091	85.81
574.445	119.54
574.799	10.54
575.153	-12.81
575.507	57.26
575.861	44.28
576.215	78.02
576.568	98.78
576.922	20.92
577.276	-28.39
577.629	-18
577.983	-10.22
578.336	-46.55
578.69	-38.77
579.043	44.28
579.397	54.66
579.75	-46.55
580.103	-30.98
580.456	33.9
580.81	33.9
581.163	-49.15
581.516	-90.67
581.869	-43.96
582.222	-33.58
582.575	-152.96
582.928	-33.58
583.281	111.76
583.633	-88.08
583.986	-56.93
584.339	-158.15
584.691	-212.65
585.044	-114.03
585.397	-62.12
585.749	18.33
586.102	-72.5
586.454	-18
586.806	-51.74
587.159	-223.03
587.511	-285.31
587.863	-290.5
588.215	-246.39
588.567	-217.84
588.92	-202.27
589.272	-215.24
589.624	-12.81
589.975	-116.62
590.327	-246.39
590.679	-184.1
591.031	-204.86
591.383	-207.46
591.734	-243.79
592.086	-204.86
592.438	-272.34
592.789	-313.86
593.141	-415.08
593.492	-441.03
593.844	-485.15
594.195	-347.6
594.546	-342.41
594.898	-339.81
595.249	-217.84
595.6	-85.48
595.951	-155.55
596.302	-101.05
596.653	-194.48
597.004	-142.58
597.355	-202.27
597.706	-228.22
598.057	-225.62
598.408	-168.53
598.758	-230.81
599.109	-404.7
599.46	-451.41
599.81	-474.77
600.161	-581.17
600.511	-591.55
600.862	-446.22
601.212	-347.6
601.562	-313.86
601.913	-303.48
602.263	-137.39
602.613	-246.39
602.963	-189.29
603.313	-238.6
603.663	-233.41
604.013	-191.89
604.363	-261.96
604.713	-202.27
605.063	-259.36
605.413	-274.93
605.763	-319.05
606.112	-383.93
606.462	-264.55
606.812	-352.79
607.161	-477.36
607.511	-469.58
607.86	-635.67
608.21	-760.24
608.559	-747.27
608.908	-1056.1
609.258	-1333.79
609.607	-1593.32
609.956	-2356.32
610.305	-3448.91
610.654	-5748.29
611.003	-10116.08
611.352	-15685.47
611.701	-19090.42
612.05	-18368.95
612.399	-15848.97
612.748	-12553.01
613.097	-10152.42
613.445	-8263.08
613.794	-6812.34
614.143	-6168.72
614.491	-5756.08
614.84	-5301.91
615.188	-4941.17
615.537	-4442.89
615.885	-3949.79
616.233	-3254.27
616.581	-2794.91
616.93	-2408.22
617.278	-2089.01
617.626	-1915.12
617.974	-1749.03
618.322	-1510.27
618.67	-1590.72
619.018	-1660.79
619.366	-1702.32
619.714	-1658.2
620.061	-1733.46
620.409	-1759.41
620.757	-1907.34
621.104	-1982.6
621.452	-1938.48
621.799	-1774.98
622.147	-1855.43
622.494	-1642.62
622.842	-1681.55
623.189	-1590.72
623.536	-1510.27
623.884	-1564.77
624.231	-1520.65
624.578	-1476.53
624.925	-1473.93
625.272	-1432.41
625.619	-1305.24
625.966	-1370.12
626.313	-1193.65
626.66	-1149.53
627.007	-1159.91
627.353	-1227.39
627.7	-1258.53
628.047	-1185.86
628.393	-1139.15
628.74	-1201.43
629.086	-1266.31
629.433	-1219.6
629.779	-1375.31
630.125	-1621.86
630.472	-1871.01
630.818	-2213.58
631.164	-2922.08
631.51	-3119.32
631.857	-3082.98
632.203	-2532.79
632.549	-1883.98
632.895	-1372.72
633.24	-926.34
633.586	-744.67
633.932	-526.67
634.278	-433.24
634.624	-295.7
634.969	-243.79
635.315	-33.58
635.66	-116.62
636.006	-2.43
636.351	39.09
636.697	119.54
637.042	301.21
637.388	233.73
637.733	555.54
638.078	1282.21
638.423	11175.27
638.768	25682.66
639.113	28625.66
639.458	37319.71
639.803	42440.12
640.148	30751.16
640.493	20061.37
640.838	13495.41
641.183	8590.41
641.527	4585.95
641.872	2115.28
642.217	1001.92
642.561	430.97
642.906	163.66
643.25	78.02
643.595	-46.55
643.939	-111.43
644.284	-108.84
644.628	-62.12
644.972	-191.89
645.316	-319.05
645.66	-199.67
646.004	-220.43
646.348	-194.48
646.692	-210.05
647.036	-189.29
647.38	-212.65
647.724	-212.65
648.068	-236
648.412	-264.55
648.755	-347.6
649.099	-300.89
649.443	-248.98
649.786	-350.2
650.13	-529.27
650.473	-796.58
650.816	-1030.15
651.16	-1009.39
651.503	-947.1
651.846	-801.77
652.189	-495.53
652.533	-477.36
652.876	-492.93
653.219	-503.31
653.562	-534.46
653.905	-464.39
654.247	-464.39
654.59	-360.58
654.933	-332.03
655.276	-306.08
655.619	-261.96
655.961	-163.34
656.304	-158.15
656.646	-139.98
656.989	-210.05
657.331	-98.46
657.674	-215.24
658.016	-264.55
658.358	-261.96
658.701	-228.22
659.043	-303.48
659.385	-236
659.727	-220.43
660.069	-207.46
660.411	-274.93
660.753	-82.89
661.095	-137.39
661.437	-72.5
661.778	-248.98
662.12	-321.65
662.462	-441.03
662.804	-695.36
663.145	-729.1
663.487	-539.65
663.828	-565.6
664.17	-482.55
664.511	-459.2
664.852	-378.74
665.194	-357.98
665.535	-145.17
665.876	-191.89
666.217	-197.08
666.558	-176.31
666.899	-261.96
667.24	-264.55
667.581	-254.17
667.922	-295.7
668.263	-223.03
668.604	-316.46
668.944	-251.58
669.285	-277.53
669.626	-347.6
669.966	-95.86
670.307	-282.72
670.647	-171.12
670.988	-184.1
671.328	-85.48
671.669	-248.98
672.009	-254.17
672.349	-246.39
672.689	-147.77
673.029	-202.27
673.369	-111.43
673.71	-272.34
674.049	-121.81
674.389	-119.22
674.729	-220.43
675.069	-95.86
675.409	-56.93
675.749	-49.15
676.088	-90.67
676.428	-186.7
676.768	-223.03
677.107	-225.62
677.447	-142.58
677.786	-116.62
678.125	-194.48
678.465	-189.29
678.804	-246.39
679.143	-184.1
679.482	-207.46
679.821	-95.86
680.161	-155.55
680.5	-111.43
680.839	-101.05
681.177	-277.53
681.516	-129.6
681.855	-160.74
682.194	-173.72
682.533	-189.29
682.871	-236
683.21	-127
683.549	-241.2
683.887	-184.1
684.225	-119.22
684.564	-59.53
684.902	-145.17
685.241	-98.46
685.579	-90.67
685.917	-75.1
686.255	-106.24
686.593	-121.81
686.931	-197.08
687.269	-334.62
687.607	-513.7
687.945	-466.98
688.283	-459.2
688.621	-596.74
688.959	-409.89
689.296	-378.74
689.634	-287.91
689.972	-228.22
690.309	-171.12
690.647	-127
690.984	-152.96
691.322	-173.72
691.659	-103.65
691.996	-75.1
692.333	-88.08
692.671	-127
693.008	-173.72
693.345	-134.79
693.682	-425.46
694.019	-402.1
694.356	-300.89
694.693	-329.43
695.03	-311.27
695.366	-251.58
695.703	-173.72
696.04	-90.67
696.376	-184.1
696.713	-134.79
697.05	-72.5
697.386	-54.34
697.722	44.28
698.059	-23.19
698.395	124.73
698.731	-20.6
699.068	-36.17
699.404	-95.86
699.74	-62.12
700.076	-20.6
700.412	-64.72
700.748	-33.58
701.084	-10.22
701.42	-7.62
701.756	18.33
702.091	-119.22
702.427	-77.69
702.763	-134.79
703.098	-80.29
703.434	-145.17
703.769	-158.15
704.105	-67.31
704.44	-155.55
704.776	-199.67
705.111	-217.84
705.446	-248.98
705.781	-347.6
706.117	-581.17
706.452	-690.17
706.787	-856.27
707.122	-1159.91
707.457	-1211.81
707.792	-1377.91
708.126	-1250.74
708.461	-1092.43
708.796	-1133.96
709.131	-1440.2
709.465	-1611.48
709.8	-1608.89
710.134	-1224.79
710.469	-1084.65
710.803	-786.2
711.138	-669.41
711.472	-555.22
711.806	-630.48
712.14	-817.34
712.475	-1170.29
712.809	-1279.29
713.143	-1167.7
713.477	-988.62
713.811	-729.1
714.145	-640.86
714.479	-332.03
714.812	-290.5
715.146	-191.89
715.48	-88.08
715.814	-106.24
716.147	-12.81
716.481	-103.65
716.814	-38.77
717.148	-51.74
717.481	36.5
717.814	20.92
718.148	-36.17
718.481	-18
718.814	-2.43
719.147	23.52
719.48	-82.89
719.813	0.16
720.146	-12.81
720.479	-20.6
720.812	-23.19
721.145	-38.77
721.478	15.73
721.81	-51.74
722.143	36.5
722.476	-15.41
722.808	18.33
723.141	-77.69
723.473	-77.69
723.806	65.04
724.138	111.76
724.47	-62.12
724.803	80.61
725.135	-25.79
725.467	7.95
725.799	31.31
726.131	-72.5
726.463	-124.41
726.795	5.35
727.127	83.21
727.459	80.61
727.791	-2.43
728.122	-15.41
728.454	91
728.786	13.14
729.117	5.35
729.449	-82.89
729.78	-75.1
730.112	-25.79
730.443	-38.77
730.774	-2.43
731.106	-75.1
731.437	98.78
731.768	-18
732.099	-12.81
732.43	57.26
732.761	5.35
733.092	-56.93
733.423	18.33
733.754	-25.79
734.085	-28.39
734.416	2.76
734.746	-5.03
735.077	-36.17
735.407	-18
735.738	-90.67
736.068	101.38
736.399	-38.77
736.729	-46.55
737.06	18.33
737.39	-38.77
737.72	31.31
738.05	-90.67
738.38	15.73
738.71	67.64
739.041	-12.81
739.37	23.52
739.7	28.71
740.03	-20.6
740.36	-56.93
740.69	20.92
741.02	-7.62
741.349	20.92
741.679	80.61
742.008	-18
742.338	31.31
742.667	-59.53
742.997	-119.22
743.326	-72.5
743.655	-28.39
743.984	88.4
744.314	-59.53
744.643	-80.29
744.972	-64.72
745.301	-158.15
745.63	-36.17
745.959	-23.19
746.288	-12.81
746.616	5.35
746.945	-36.17
747.274	-25.79
747.603	-15.41
747.931	-10.22
748.26	41.69
748.588	28.71
748.917	-25.79
749.245	2.76
749.573	-7.62
749.902	-43.96
750.23	-25.79
750.558	-2.43
750.886	-38.77
751.214	28.71
751.542	0.16
751.87	-18
752.198	-62.12
752.526	-23.19
752.854	-77.69
753.182	13.14
753.509	-49.15
753.837	-38.77
754.165	-10.22
754.492	-41.36
754.82	39.09
755.147	-7.62
755.474	-85.48
755.802	10.54
756.129	23.52
756.456	72.83
756.783	70.23
757.111	36.5
757.438	-56.93
757.765	18.33
758.092	59.85
758.418	15.73
758.745	-114.03
759.072	-59.53
759.399	-114.03
759.726	-316.46
760.052	-363.17
760.379	-518.89
760.705	-479.96
761.032	-451.41
761.358	-290.5
761.685	-269.74
762.011	-210.05
762.337	-129.6
762.663	-56.93
762.99	-20.6
763.316	23.52
763.642	36.5
763.968	88.4
764.294	-93.27
764.62	-59.53
764.946	-49.15
765.271	67.64
765.597	132.52
765.923	-72.5
766.248	-33.58
766.574	13.14
766.9	44.28
767.225	36.5
767.55	-23.19
767.876	0.16
768.201	-101.05
768.526	-12.81
768.852	15.73
769.177	-67.31
769.502	-49.15
769.827	-85.48
770.152	-124.41
770.477	-67.31
770.802	-49.15
771.127	65.04
771.451	52.07
771.776	41.69
772.101	-20.6
772.425	-43.96
772.75	-2.43
773.075	15.73
773.399	72.83
773.723	-2.43
774.048	-36.17
774.372	41.69
774.696	-12.81
775.02	-36.17
775.345	31.31
775.669	75.42
775.993	-54.34
776.317	72.83
776.641	28.71
776.965	-10.22
777.288	28.71
777.612	-134.79
777.936	-33.58
778.26	-25.79
778.583	-18
778.907	62.45
779.23	26.11
779.554	-15.41
779.877	5.35
780.2	65.04
780.524	-15.41
780.847	54.66
781.17	33.9
781.493	-106.24
781.816	-59.53
782.139	-7.62
782.462	28.71
