Data from Subt2_19-09-48-796.txt Node
Date: Wed Feb 22 19:09:48 CST 2023
User: Optics Lab
Spectrometer: FLMS14302
Trigger mode: 0
Integration Time (sec): 1.000000E-1
Scans to average: 1
Electric dark correction enabled: true
Nonlinearity correction enabled: false
Boxcar width: 0
XAxis mode: Wavelengths
Number of Pixels in Spectrum: 2048
>>>>>Begin Spectral Data<<<<<
338.578	-23.19
338.961	-23.19
339.343	-23.19
339.725	57.26
340.108	91
340.49	13.14
340.872	-23.19
341.254	2.76
341.636	2.76
342.018	36.5
342.4	-64.72
342.782	18.33
343.164	-5.03
343.546	15.73
343.928	33.9
344.309	7.95
344.691	-46.55
345.073	39.09
345.455	13.14
345.836	-20.6
346.218	-23.19
346.599	-49.15
346.981	39.09
347.362	13.14
347.744	-30.98
348.125	-49.15
348.506	49.47
348.888	31.31
349.269	-38.77
349.65	10.54
350.031	78.02
350.413	-54.34
350.794	-5.03
351.175	-30.98
351.556	-124.41
351.937	-2.43
352.318	-93.27
352.698	-54.34
353.079	0.16
353.46	-15.41
353.841	-20.6
354.222	-36.17
354.602	-103.65
354.983	52.07
355.363	13.14
355.744	41.69
356.124	13.14
356.505	-30.98
356.885	-51.74
357.266	41.69
357.646	20.92
358.026	54.66
358.407	5.35
358.787	31.31
359.167	-36.17
359.547	5.35
359.927	91
360.307	-28.39
360.687	20.92
361.067	111.76
361.447	75.42
361.827	88.4
362.207	-7.62
362.587	-25.79
362.966	67.64
363.346	-20.6
363.726	54.66
364.105	72.83
364.485	33.9
364.865	-33.58
365.244	0.16
365.624	-12.81
366.003	62.45
366.382	-33.58
366.762	26.11
367.141	-10.22
367.52	2.76
367.899	-41.36
368.279	2.76
368.658	54.66
369.037	-15.41
369.416	10.54
369.795	-5.03
370.174	-5.03
370.553	-20.6
370.932	18.33
371.311	-62.12
371.689	132.52
372.068	-64.72
372.447	-15.41
372.825	-2.43
373.204	-25.79
373.583	20.92
373.961	114.35
374.34	23.52
374.718	-85.48
375.097	18.33
375.475	10.54
375.853	46.88
376.232	-36.17
376.61	-54.34
376.988	31.31
377.366	-88.08
377.744	54.66
378.122	54.66
378.5	-62.12
378.878	-62.12
379.256	-75.1
379.634	-36.17
380.012	2.76
380.39	-25.79
380.768	-67.31
381.145	-36.17
381.523	-18
381.901	15.73
382.278	13.14
382.656	7.95
383.033	-28.39
383.411	75.42
383.788	-28.39
384.166	-90.67
384.543	39.09
384.921	7.95
385.298	109.16
385.675	0.16
386.052	-20.6
386.429	54.66
386.806	26.11
387.184	49.47
387.561	88.4
387.938	-56.93
388.314	-12.81
388.691	-43.96
389.068	31.31
389.445	-28.39
389.822	-69.91
390.198	-10.22
390.575	-59.53
390.952	-62.12
391.328	-106.24
391.705	-25.79
392.081	46.88
392.458	-98.46
392.834	-36.17
393.211	31.31
393.587	39.09
393.963	-121.81
394.34	-7.62
394.716	39.09
395.092	5.35
395.468	-80.29
395.844	-43.96
396.22	114.35
396.596	-41.36
396.972	44.28
397.348	-36.17
397.724	36.5
398.1	-46.55
398.476	62.45
398.851	26.11
399.227	-75.1
399.603	-33.58
399.978	65.04
400.354	36.5
400.729	-12.81
401.105	10.54
401.48	88.4
401.856	7.95
402.231	80.61
402.606	-64.72
402.982	-5.03
403.357	-33.58
403.732	-10.22
404.107	62.45
404.482	57.26
404.857	54.66
405.232	31.31
405.607	67.64
405.982	-46.55
406.357	-64.72
406.732	-56.93
407.107	-62.12
407.482	-18
407.856	-127
408.231	13.14
408.606	-85.48
408.98	-46.55
409.355	70.23
409.729	52.07
410.104	-36.17
410.478	13.14
410.852	7.95
411.227	70.23
411.601	52.07
411.975	-43.96
412.35	-5.03
412.724	-90.67
413.098	33.9
413.472	83.21
413.846	-51.74
414.22	101.38
414.594	-7.62
414.968	31.31
415.342	-5.03
415.715	31.31
416.089	-64.72
416.463	-75.1
416.837	41.69
417.21	-33.58
417.584	-36.17
417.957	59.85
418.331	-30.98
418.704	5.35
419.078	59.85
419.451	122.14
419.824	116.95
420.198	26.11
420.571	18.33
420.944	44.28
421.317	20.92
421.69	5.35
422.064	28.71
422.437	5.35
422.81	-127
423.182	0.16
423.555	49.47
423.928	-23.19
424.301	28.71
424.674	70.23
425.047	52.07
425.419	-72.5
425.792	13.14
426.164	-90.67
426.537	-75.1
426.91	-20.6
427.282	-51.74
427.654	7.95
428.027	132.52
428.399	28.71
428.771	-10.22
429.144	15.73
429.516	-5.03
429.888	-59.53
430.26	31.31
430.632	-88.08
431.004	-49.15
431.376	-7.62
431.748	65.04
432.12	-72.5
432.492	23.52
432.864	15.73
433.236	-127
433.607	-127
433.979	-82.89
434.351	85.81
434.722	28.71
435.094	2.76
435.465	-18
435.837	109.16
436.208	184.42
436.58	174.04
436.951	70.23
437.322	59.85
437.693	75.42
438.065	2.76
438.436	15.73
438.807	-41.36
439.178	57.26
439.549	-75.1
439.92	44.28
440.291	-111.43
440.662	-10.22
441.033	44.28
441.403	101.38
441.774	10.54
442.145	-25.79
442.516	31.31
442.886	52.07
443.257	28.71
443.627	10.54
443.998	18.33
444.368	-51.74
444.739	57.26
445.109	-64.72
445.479	-5.03
445.85	26.11
446.22	-25.79
446.59	44.28
446.96	153.28
447.33	13.14
447.7	54.66
448.07	18.33
448.44	75.42
448.81	-33.58
449.18	52.07
449.55	26.11
449.92	52.07
450.29	-12.81
450.659	-18
451.029	72.83
451.399	44.28
451.768	72.83
452.138	7.95
452.507	13.14
452.877	109.16
453.246	5.35
453.615	119.54
453.985	103.97
454.354	127.33
454.723	13.14
455.092	44.28
455.462	18.33
455.831	88.4
456.2	98.78
456.569	150.69
456.938	78.02
457.307	132.52
457.675	122.14
458.044	96.19
458.413	80.61
458.782	7.95
459.15	114.35
459.519	67.64
459.888	-2.43
460.256	13.14
460.625	78.02
460.993	57.26
461.362	39.09
461.73	-2.43
462.098	36.5
462.467	54.66
462.835	39.09
463.203	106.57
463.571	-36.17
463.939	-28.39
464.307	33.9
464.675	18.33
465.043	31.31
465.411	80.61
465.779	91
466.147	49.47
466.515	67.64
466.883	114.35
467.25	148.09
467.618	116.95
467.986	78.02
468.353	23.52
468.721	10.54
469.088	28.71
469.456	-15.41
469.823	111.76
470.19	62.45
470.558	124.73
470.925	78.02
471.292	80.61
471.659	101.38
472.027	124.73
472.394	36.5
472.761	96.19
473.128	49.47
473.495	72.83
473.862	78.02
474.228	44.28
474.595	59.85
474.962	111.76
475.329	67.64
475.695	75.42
476.062	36.5
476.429	57.26
476.795	184.42
477.162	49.47
477.528	7.95
477.895	23.52
478.261	33.9
478.627	98.78
478.994	-12.81
479.36	33.9
479.726	-90.67
480.092	78.02
480.458	-2.43
480.824	57.26
481.19	-69.91
481.556	36.5
481.922	65.04
482.288	26.11
482.654	85.81
483.02	132.52
483.385	80.61
483.751	161.07
484.117	18.33
484.482	0.16
484.848	26.11
485.213	111.76
485.579	142.9
485.944	-67.31
486.31	15.73
486.675	-12.81
487.04	26.11
487.406	88.4
487.771	179.23
488.136	148.09
488.501	5.35
488.866	7.95
489.231	80.61
489.596	-7.62
489.961	122.14
490.326	91
490.691	80.61
491.056	124.73
491.42	33.9
491.785	91
492.15	83.21
492.514	116.95
492.879	20.92
493.243	62.45
493.608	189.61
493.972	10.54
494.337	33.9
494.701	-72.5
495.065	20.92
495.43	62.45
495.794	36.5
496.158	-23.19
496.522	20.92
496.886	20.92
497.25	-5.03
497.614	-2.43
497.978	62.45
498.342	10.54
498.706	31.31
499.07	33.9
499.433	-10.22
499.797	41.69
500.161	114.35
500.524	5.35
500.888	122.14
501.251	62.45
501.615	5.35
501.978	114.35
502.342	44.28
502.705	137.71
503.068	72.83
503.432	-2.43
503.795	57.26
504.158	122.14
504.521	31.31
504.884	26.11
505.247	44.28
505.61	54.66
505.973	62.45
506.336	26.11
506.699	23.52
507.062	-7.62
507.424	52.07
507.787	52.07
508.15	28.71
508.512	46.88
508.875	-2.43
509.238	52.07
509.6	83.21
509.962	18.33
510.325	13.14
510.687	33.9
511.049	-51.74
511.412	72.83
511.774	-85.48
512.136	49.47
512.498	39.09
512.86	52.07
513.222	26.11
513.584	13.14
513.946	-46.55
514.308	7.95
514.67	-10.22
515.032	111.76
515.393	98.78
515.755	163.66
516.117	10.54
516.478	26.11
516.84	106.57
517.201	44.28
517.563	150.69
517.924	124.73
518.286	80.61
518.647	-49.15
519.008	-23.19
519.37	-54.34
519.731	52.07
520.092	-2.43
520.453	106.57
520.814	85.81
521.175	127.33
521.536	88.4
521.897	98.78
522.258	13.14
522.619	116.95
522.979	54.66
523.34	91
523.701	91
524.061	23.52
524.422	114.35
524.783	46.88
525.143	49.47
525.504	62.45
525.864	33.9
526.224	103.97
526.585	39.09
526.945	142.9
527.305	10.54
527.665	153.28
528.025	150.69
528.385	62.45
528.746	70.23
529.106	150.69
529.465	39.09
529.825	96.19
530.185	62.45
530.545	59.85
530.905	85.81
531.264	103.97
531.624	62.45
531.984	78.02
532.343	-2.43
532.703	-59.53
533.062	-41.36
533.422	155.88
533.781	49.47
534.141	54.66
534.5	-59.53
534.859	62.45
535.218	31.31
535.577	67.64
535.937	101.38
536.296	31.31
536.655	93.59
537.014	124.73
537.373	127.33
537.731	-5.03
538.09	98.78
538.449	67.64
538.808	150.69
539.166	20.92
539.525	75.42
539.884	54.66
540.242	2.76
540.601	70.23
540.959	-15.41
541.318	-28.39
541.676	15.73
542.034	39.09
542.393	91
542.751	33.9
543.109	59.85
543.467	44.28
543.825	-80.29
544.183	41.69
544.541	67.64
544.899	106.57
545.257	-23.19
545.615	26.11
545.973	57.26
546.331	-49.15
546.688	114.35
547.046	78.02
547.404	106.57
547.761	-80.29
548.119	18.33
548.476	93.59
548.834	39.09
549.191	124.73
549.548	44.28
549.906	44.28
550.263	-5.03
550.62	59.85
550.977	52.07
551.334	15.73
551.691	93.59
552.048	28.71
552.405	96.19
552.762	114.35
553.119	-12.81
553.476	52.07
553.833	65.04
554.189	88.4
554.546	36.5
554.903	93.59
555.259	-36.17
555.616	80.61
555.972	49.47
556.329	28.71
556.685	-20.6
557.042	18.33
557.398	-33.58
557.754	46.88
558.11	57.26
558.467	15.73
558.823	2.76
559.179	103.97
559.535	-12.81
559.891	59.85
560.247	39.09
560.603	114.35
560.958	-36.17
561.314	91
561.67	85.81
562.026	127.33
562.381	129.92
562.737	44.28
563.092	0.16
563.448	101.38
563.803	49.47
564.159	39.09
564.514	33.9
564.869	26.11
565.225	72.83
565.58	-15.41
565.935	96.19
566.29	65.04
566.645	28.71
567	-5.03
567.355	85.81
567.71	36.5
568.065	39.09
568.42	-12.81
568.775	153.28
569.13	109.16
569.484	-7.62
569.839	-90.67
570.193	44.28
570.548	93.59
570.903	39.09
571.257	33.9
571.611	15.73
571.966	65.04
572.32	46.88
572.674	39.09
573.029	39.09
573.383	-111.43
573.737	-7.62
574.091	13.14
574.445	-12.81
574.799	70.23
575.153	46.88
575.507	33.9
575.861	44.28
576.215	140.31
576.568	44.28
576.922	-75.1
577.276	-10.22
577.629	31.31
577.983	-18
578.336	-28.39
578.69	-108.84
579.043	83.21
579.397	46.88
579.75	-30.98
580.103	-64.72
580.456	44.28
580.81	-10.22
581.163	-116.62
581.516	-20.6
581.869	31.31
582.222	-51.74
582.575	-62.12
582.928	23.52
583.281	0.16
583.633	-150.36
583.986	-93.27
584.339	-98.46
584.691	-82.89
585.044	-98.46
585.397	-54.34
585.749	-41.36
586.102	-43.96
586.454	-98.46
586.806	-121.81
587.159	-230.81
587.511	-223.03
587.863	-158.15
588.215	-189.29
588.567	-238.6
588.92	-139.98
589.272	-230.81
589.624	-82.89
589.975	-132.2
590.327	-280.12
590.679	-199.67
591.031	-186.7
591.383	-119.22
591.734	-147.77
592.086	-129.6
592.438	-223.03
592.789	-233.41
593.141	-345
593.492	-383.93
593.844	-407.29
594.195	-345
594.546	-313.86
594.898	-264.55
595.249	-176.31
595.6	-145.17
595.951	-212.65
596.302	-181.5
596.653	-230.81
597.004	-212.65
597.355	-207.46
597.706	-184.1
598.057	-282.72
598.408	-230.81
598.758	-277.53
599.109	-461.79
599.46	-446.22
599.81	-492.93
600.161	-529.27
600.511	-588.96
600.862	-443.62
601.212	-337.22
601.562	-360.58
601.913	-332.03
602.263	-272.34
602.613	-251.58
602.963	-251.58
603.313	-194.48
603.663	-228.22
604.013	-212.65
604.363	-267.15
604.713	-238.6
605.063	-243.79
605.413	-306.08
605.763	-272.34
606.112	-376.15
606.462	-389.12
606.812	-365.77
607.161	-479.96
607.511	-428.05
607.86	-586.36
608.21	-723.91
608.559	-791.39
608.908	-1032.74
609.258	-1370.12
609.607	-1606.29
609.956	-2358.91
610.305	-3467.08
610.654	-5784.63
611.003	-10027.85
611.352	-15521.97
611.701	-18968.45
612.05	-18192.47
612.399	-15654.33
612.748	-12436.23
613.097	-9968.15
613.445	-8296.82
613.794	-6646.25
614.143	-6176.51
614.491	-5667.84
614.84	-5221.46
615.188	-4902.25
615.537	-4435.1
615.885	-3845.98
616.233	-3176.41
616.581	-2750.79
616.93	-2374.48
617.278	-2060.46
617.626	-1974.82
617.974	-1754.22
618.322	-1468.74
618.67	-1554.39
619.018	-1627.05
619.366	-1749.03
619.714	-1634.84
620.061	-1746.43
620.409	-1839.86
620.757	-1871.01
621.104	-2037.1
621.452	-1922.91
621.799	-1772.39
622.147	-1902.15
622.494	-1663.39
622.842	-1699.72
623.189	-1601.1
623.536	-1582.93
623.884	-1611.48
624.231	-1559.58
624.578	-1632.24
624.925	-1499.89
625.272	-1497.29
625.619	-1403.86
625.966	-1380.51
626.313	-1292.27
626.66	-1268.91
627.007	-1204.03
627.353	-1154.72
627.7	-1193.65
628.047	-1331.2
628.393	-1201.43
628.74	-1162.51
629.086	-1266.31
629.433	-1240.36
629.779	-1370.12
630.125	-1536.22
630.472	-1946.27
630.818	-2278.46
631.164	-2976.58
631.51	-3249.08
631.857	-3124.51
632.203	-2540.58
632.549	-1907.34
632.895	-1390.89
633.24	-1032.74
633.586	-773.22
633.932	-537.05
634.278	-383.93
634.624	-332.03
634.969	-308.67
635.315	-184.1
635.66	-256.77
636.006	-197.08
636.351	-165.93
636.697	-95.86
637.042	49.47
637.388	0.16
637.733	405.02
638.078	726.83
638.423	7334.31
638.768	15366.58
639.113	16313.84
639.458	21763.84
639.803	26372.99
640.148	17531.01
640.493	9779.03
640.838	6376.67
641.183	3579
641.527	1892.09
641.872	794.31
642.217	223.35
642.561	103.97
642.906	-69.91
643.25	-106.24
643.595	-199.67
643.939	-230.81
644.284	-207.46
644.628	-111.43
644.972	-155.55
645.316	-313.86
645.66	-225.62
646.004	-306.08
646.348	-267.15
646.692	-243.79
647.036	-238.6
647.38	-225.62
647.724	-308.67
648.068	-202.27
648.412	-267.15
648.755	-285.31
649.099	-215.24
649.443	-256.77
649.786	-396.91
650.13	-454
650.473	-765.43
650.816	-988.62
651.16	-967.86
651.503	-965.27
651.846	-786.2
652.189	-622.7
652.533	-391.72
652.876	-443.62
653.219	-518.89
653.562	-503.31
653.905	-446.22
654.247	-464.39
654.59	-326.84
654.933	-306.08
655.276	-256.77
655.619	-243.79
655.961	-186.7
656.304	-215.24
656.646	-163.34
656.989	-207.46
657.331	-95.86
657.674	-300.89
658.016	-264.55
658.358	-254.17
658.701	-238.6
659.043	-313.86
659.385	-316.46
659.727	-142.58
660.069	-241.2
660.411	-217.84
660.753	-93.27
661.095	-127
661.437	-127
661.778	-287.91
662.12	-342.41
662.462	-368.36
662.804	-778.41
663.145	-695.36
663.487	-617.5
663.828	-498.12
664.17	-433.24
664.511	-404.7
664.852	-233.41
665.194	-267.15
665.535	-202.27
665.876	-116.62
666.217	-186.7
666.558	-178.91
666.899	-228.22
667.24	-220.43
667.581	-274.93
667.922	-223.03
668.263	-251.58
668.604	-295.7
668.944	-396.91
669.285	-303.48
669.626	-329.43
669.966	-173.72
670.307	-277.53
670.647	-197.08
670.988	-176.31
671.328	-155.55
671.669	-277.53
672.009	-264.55
672.349	-233.41
672.689	-139.98
673.029	-139.98
673.369	-69.91
673.71	-293.1
674.049	-210.05
674.389	-225.62
674.729	-194.48
675.069	-95.86
675.409	-67.31
675.749	-176.31
676.088	-176.31
676.428	-121.81
676.768	-139.98
677.107	-204.86
677.447	-223.03
677.786	-134.79
678.125	-189.29
678.465	-199.67
678.804	-215.24
679.143	-282.72
679.482	-191.89
679.821	-150.36
680.161	-173.72
680.5	-165.93
680.839	-189.29
681.177	-293.1
681.516	-220.43
681.855	-191.89
682.194	-171.12
682.533	-269.74
682.871	-287.91
683.21	-163.34
683.549	-127
683.887	-132.2
684.225	-119.22
684.564	-101.05
684.902	-178.91
685.241	-88.08
685.579	-108.84
685.917	-90.67
686.255	-199.67
686.593	-202.27
686.931	-184.1
687.269	-365.77
687.607	-544.84
687.945	-555.22
688.283	-433.24
688.621	-524.08
688.959	-428.05
689.296	-428.05
689.634	-339.81
689.972	-230.81
690.309	-194.48
690.647	-137.39
690.984	-199.67
691.322	-223.03
691.659	-111.43
691.996	-129.6
692.333	-114.03
692.671	-41.36
693.008	-158.15
693.345	-145.17
693.682	-329.43
694.019	-394.31
694.356	-352.79
694.693	-389.12
695.03	-321.65
695.366	-220.43
695.703	-238.6
696.04	-145.17
696.376	-184.1
696.713	-145.17
697.05	-168.53
697.386	-72.5
697.722	-46.55
698.059	-62.12
698.395	36.5
698.731	13.14
699.068	-10.22
699.404	-80.29
699.74	-77.69
700.076	-2.43
700.412	-121.81
700.748	-10.22
701.084	-12.81
701.42	2.76
701.756	31.31
702.091	-111.43
702.427	-41.36
702.763	-127
703.098	-160.74
703.434	-103.65
703.769	-139.98
704.105	-176.31
704.44	-168.53
704.776	-246.39
705.111	-202.27
705.446	-319.05
705.781	-451.41
706.117	-625.29
706.452	-622.7
706.787	-879.62
707.122	-1248.15
707.457	-1222.2
707.792	-1359.74
708.126	-1178.08
708.461	-1022.36
708.796	-1198.84
709.131	-1463.55
709.465	-1572.55
709.8	-1616.67
710.134	-1211.81
710.469	-1071.67
710.803	-705.74
711.138	-651.24
711.472	-524.08
711.806	-557.81
712.14	-822.53
712.475	-1136.55
712.809	-1287.08
713.143	-1170.29
713.477	-1165.1
713.811	-734.29
714.145	-672
714.479	-383.93
714.812	-267.15
715.146	-225.62
715.48	-101.05
715.814	-132.2
716.147	-139.98
716.481	-119.22
716.814	-72.5
717.148	-69.91
717.481	39.09
717.814	-7.62
718.148	-54.34
718.481	-67.31
718.814	-18
719.147	80.61
719.48	-67.31
719.813	-238.6
720.146	18.33
720.479	-93.27
720.812	-2.43
721.145	-54.34
721.478	-20.6
721.81	-12.81
722.143	15.73
722.476	-25.79
722.808	-18
723.141	-36.17
723.473	-38.77
723.806	23.52
724.138	70.23
724.47	-28.39
724.803	28.71
725.135	-64.72
725.467	-25.79
725.799	-2.43
726.131	-30.98
726.463	-88.08
726.795	20.92
727.127	39.09
727.459	41.69
727.791	-46.55
728.122	13.14
728.454	20.92
728.786	-20.6
729.117	-46.55
729.449	-33.58
729.78	-67.31
730.112	-30.98
730.443	-124.41
730.774	-49.15
731.106	-88.08
731.437	-2.43
731.768	-88.08
732.099	10.54
732.43	-15.41
732.761	-54.34
733.092	-62.12
733.423	7.95
733.754	31.31
734.085	-59.53
734.416	28.71
734.746	-77.69
735.077	-46.55
735.407	-62.12
735.738	20.92
736.068	67.64
736.399	-18
736.729	-33.58
737.06	26.11
737.39	5.35
737.72	80.61
738.05	-28.39
738.38	36.5
738.71	-2.43
739.041	-80.29
739.37	-46.55
739.7	-43.96
740.03	28.71
740.36	-10.22
740.69	28.71
741.02	-28.39
741.349	-59.53
741.679	-20.6
742.008	-36.17
742.338	-23.19
742.667	-69.91
742.997	-67.31
743.326	-93.27
743.655	-12.81
743.984	18.33
744.314	-134.79
744.643	-54.34
744.972	-10.22
745.301	-75.1
745.63	-103.65
745.959	-82.89
746.288	-72.5
746.616	-72.5
746.945	-15.41
747.274	-36.17
747.603	5.35
747.931	-124.41
748.26	-15.41
748.588	80.61
748.917	-2.43
749.245	-23.19
749.573	-88.08
749.902	2.76
750.23	-10.22
750.558	59.85
750.886	-36.17
751.214	49.47
751.542	-10.22
751.87	-5.03
752.198	-95.86
752.526	39.09
752.854	-106.24
753.182	-30.98
753.509	-85.48
753.837	-10.22
754.165	-5.03
754.492	-36.17
754.82	-15.41
755.147	46.88
755.474	20.92
755.802	-75.1
756.129	-2.43
756.456	65.04
756.783	2.76
757.111	-15.41
757.438	-59.53
757.765	44.28
758.092	122.14
758.418	2.76
758.745	-127
759.072	-51.74
759.399	-139.98
759.726	-220.43
760.052	-365.77
760.379	-500.72
760.705	-550.03
761.032	-511.1
761.358	-378.74
761.685	-277.53
762.011	-181.5
762.337	-186.7
762.663	-67.31
762.99	-33.58
763.316	-95.86
763.642	54.66
763.968	10.54
764.294	-38.77
764.62	-67.31
764.946	-88.08
765.271	13.14
765.597	78.02
765.923	-88.08
766.248	44.28
766.574	-18
766.9	15.73
767.225	23.52
767.55	-75.1
767.876	80.61
768.201	-119.22
768.526	7.95
768.852	23.52
769.177	-43.96
769.502	-88.08
769.827	-137.39
770.152	-106.24
770.477	-106.24
770.802	-168.53
771.127	54.66
771.451	10.54
771.776	33.9
772.101	26.11
772.425	-10.22
772.75	10.54
773.075	20.92
773.399	-46.55
773.723	-80.29
774.048	20.92
774.372	-20.6
774.696	-46.55
775.02	-95.86
775.345	75.42
775.669	93.59
775.993	-36.17
776.317	80.61
776.641	-23.19
776.965	-15.41
777.288	52.07
777.612	-147.77
777.936	10.54
778.26	5.35
778.583	2.76
778.907	0.16
779.23	-23.19
779.554	-62.12
779.877	44.28
780.2	-56.93
780.524	-25.79
780.847	-69.91
781.17	20.92
781.493	-25.79
781.816	-64.72
